A_X[mg]	A_Y[mg]	A_Z[mg]	G_X[dps]	G_Y[dps]	G_Z[dps]	
-2.928000	-6.405000	1000.643982	0.686875	-0.153125	-0.936250
-11.529000	-11.102000	1003.083984	0.669375	-0.188125	-0.971250
-6.283000	-10.736000	1001.742004	1.045625	-0.183750	-0.853125
-2.745000	-11.102000	1000.156006	0.673750	-0.179375	-0.857500
-3.294000	-5.917000	1004.487000	0.525000	-0.223125	-0.980000
-6.344000	-11.773000	1005.036011	0.708750	-0.280000	-1.102500
-14.945000	-9.882000	1003.328003	1.054375	-0.323750	-0.888125
-6.527000	-8.906000	1000.522034	0.910000	-0.192500	-0.988750
-3.843000	-12.200000	1003.389038	0.735000	-0.148750	-0.905625
-8.784000	-11.468000	1004.791992	0.822500	-0.043750	-1.019375
-9.638000	-7.625000	1002.230042	0.805000	-0.153125	-0.958125
-8.540000	-13.603000	1002.473999	0.726250	-0.170625	-0.958125
-4.575000	-7.137000	1007.903015	0.997500	-0.166250	-0.945000
-5.978000	-16.653000	1003.205994	0.835625	-0.205625	-0.971250
-6.710000	-11.285000	1004.669983	0.625625	-0.100625	-0.918750
-8.906000	-14.518001	1002.230042	0.708750	-0.157500	-0.975625
-7.076000	-10.431000	1005.829041	0.949375	-0.266875	-0.988750
-7.808000	-9.394000	1001.376038	0.638750	-0.266875	-0.971250
-10.858000	-9.638000	1005.463013	0.796250	-0.210000	-1.137500
-11.468000	-11.102000	1001.497986	1.019375	-0.240625	-1.058750
-10.004000	-21.410999	993.751038	1.098125	-0.205625	-1.111250
0.732000	-16.042999	1001.315002	1.076250	-0.214375	-0.923125
1.098000	-11.407001	1003.389038	1.045625	-0.140000	-1.010625
-6.771000	-9.882000	1001.986023	0.826875	-0.074375	-0.971250
-9.394000	-15.250000	1001.132019	0.831250	-0.056875	-0.896875
-6.954000	-7.259000	1000.765991	1.198750	-0.126875	-0.984375
-2.135000	-11.956000	1001.497986	0.905625	-0.192500	-1.010625
-5.734000	-8.357000	1002.840027	0.533750	-0.223125	-0.949375
-13.481000	-8.784000	1001.742004	0.498750	-0.236250	-0.940625
-5.551000	-10.004000	990.091003	0.647500	-0.157500	-1.032500
-6.710000	-9.150001	1001.254028	0.608125	-0.175000	-1.028125
-7.442000	-13.054000	1001.497986	0.896875	-0.262500	-0.931875
-6.710000	-11.956000	1000.522034	0.896875	-0.262500	-0.931875
-6.710000	-11.956000	1004.731018	0.892500	-0.297500	-0.931875
-7.808000	-10.614000	1004.731018	0.660625	-0.192500	-0.936250
-9.516000	-8.662000	1005.890015	0.875000	-0.188125	-0.888125
-9.150001	-12.444000	1002.230042	0.861875	-0.048125	-0.997500
-5.917000	-14.030000	1004.487000	1.036875	-0.105000	-1.036875
-4.392000	-11.163000	1004.669983	0.748125	-0.258125	-1.019375
-7.808000	-7.259000	1006.134033	0.905625	-0.205625	-0.980000
-8.540000	-18.117001	1001.254028	0.800625	-0.056875	-1.045625
-4.331000	-14.823000	1002.962036	1.146250	-0.122500	-0.949375
-5.978000	-10.187000	1004.914001	1.623125	-0.354375	-0.883750
-6.222000	-10.492001	1001.132019	0.831250	-0.109375	-0.905625
-11.224000	-13.542000	1000.888000	0.656250	-0.210000	-0.923125
-8.113000	-3.233000	1003.999023	0.791875	-0.389375	-0.966875
-3.477000	-8.174000	1000.400024	1.006250	-0.218750	-0.962500
-4.880000	-8.784000	1003.267029	1.063125	-0.192500	-0.984375
-6.710000	-11.834001	1006.012024	0.778750	-0.043750	-0.962500
-8.784000	-12.078000	1004.304016	0.853125	-0.258125	-1.120000
-4.087000	-9.760000	1005.036011	0.726250	-0.070000	-1.041250
-3.050000	-9.760000	1001.619995	1.015000	-0.026250	-0.966875
-5.856000	-10.004000	999.790039	0.923125	-0.021875	-0.997500
-12.139000	-12.688000	1004.487000	1.128750	-0.078750	-0.888125
-7.625000	-9.211000	1000.033997	1.036875	-0.380625	-0.936250
-4.331000	-10.736000	999.911987	1.211875	-0.389375	-0.927500
-5.246000	-12.566000	1003.510986	1.120000	0.109375	-0.931875
-6.588000	-7.503000	1001.986023	0.892500	-0.240625	-0.958125
-6.466000	-11.346000	1000.765991	1.146250	-0.485625	-0.931875
-7.686000	-12.200000	1002.840027	0.975625	-0.183750	-0.848750
-4.880000	-7.869000	1003.205994	0.787500	-0.135625	-0.809375
-3.660000	-6.588000	1000.643982	0.975625	-0.271250	-0.831250
-0.549000	-8.662000	1003.389038	0.857500	-0.188125	-0.870625
-7.381000	-8.906000	1001.497986	0.730625	-0.065625	-1.032500
-9.028000	-13.054000	1003.572021	0.743750	-0.196875	-0.953750
0.671000	-9.333000	1000.400024	0.647500	-0.170625	-1.010625
-1.098000	-12.200000	1006.682983	1.102500	-0.306250	-0.980000
-8.845000	-8.845000	1005.036011	1.102500	-0.415625	-1.058750
-9.760000	-19.580999	1012.539001	0.940625	-0.284375	-1.050000
-7.747000	-6.832000	1002.413025	0.831250	-0.105000	-0.993125
-2.135000	-11.590000	1004.182007	0.708750	-0.087500	-1.019375
-11.041000	-16.104000	1001.619995	0.791875	-0.218750	-0.988750
-9.150001	-12.993000	1003.694031	0.647500	-0.170625	-0.984375
-8.418000	-12.322001	1003.328003	0.901250	-0.091875	-1.023750
0.549000	-14.640000	1001.132019	0.726250	-0.192500	-0.971250
-7.625000	-12.688000	1004.975037	0.538125	-0.192500	-0.958125
-4.697000	-14.274000	1004.059998	0.761250	-0.109375	-0.975625
-5.368000	-8.113000	1006.317017	0.783125	-0.153125	-1.006250
-9.150001	-11.468000	1006.866028	0.647500	-0.231875	-1.023750
-7.198000	-14.762000	1003.205994	0.590625	-0.192500	-0.984375
-8.540000	-11.285000	1004.426025	0.966875	-0.096250	-1.028125
-3.721000	-4.331000	1000.156006	0.883750	-0.214375	-0.953750
-4.270000	-5.612000	1001.376038	0.892500	-0.218750	-0.953750
-10.797000	-13.115000	1002.962036	0.945000	-0.087500	-0.984375
-9.638000	-7.747000	1006.072998	0.840000	-0.223125	-0.879375
-2.745000	-4.819000	1001.864014	1.085000	-0.170625	-1.010625
-3.294000	-11.407001	1002.962036	0.958125	-0.183750	-1.050000
-10.797000	-20.191000	1001.254028	0.813750	-0.245000	-0.988750
-5.063000	-11.895000	1002.473999	0.945000	-0.301875	-0.949375
-9.882000	-11.956000	1003.937988	0.883750	-0.196875	-0.997500
-7.930000	-12.932000	1006.195007	0.901250	-0.043750	-1.019375
-4.087000	-9.211000	998.387024	0.717500	-0.100625	-0.910000
-6.100000	-6.527000	1003.632996	0.901250	-0.201250	-1.054375
-4.758000	-5.124000	1002.840027	0.844375	-0.135625	-0.988750
-5.002000	-9.638000	1003.572021	0.818125	-0.122500	-1.085000
-6.100000	-13.176001	1006.134033	1.080625	-0.271250	-1.080625
-5.734000	-6.893000	1009.489014	0.665000	-0.179375	-0.923125
-6.710000	-3.355000	1008.330017	1.106875	-0.192500	-1.032500
-7.442000	-13.115000	1005.523987	0.783125	-0.183750	-0.931875
-5.490000	-14.030000	1001.497986	0.459375	-0.118125	-1.001875
-1.281000	-7.869000	1002.351990	0.564375	-0.078750	-0.971250
-6.893000	-10.492001	996.923035	0.564375	-0.078750	-0.927500
-6.893000	-10.492001	999.973022	0.577500	-0.183750	-0.927500
-7.686000	-10.980000	999.973022	0.704375	-0.157500	-0.953750
-9.882000	-12.566000	1003.999023	0.927500	-0.310625	-0.997500
-4.453000	-6.405000	1000.033997	0.665000	-0.284375	-0.914375
-4.392000	-10.370000	1002.230042	0.857500	-0.345625	-0.945000
-8.540000	-12.322001	1004.853027	0.936250	-0.266875	-0.905625
-10.370000	-6.893000	1005.523987	0.713125	-0.052500	-1.019375
-10.492001	-11.712000	1002.962036	0.424375	-0.021875	-1.041250
-5.673000	-10.858000	1004.548035	0.380625	-0.153125	-1.015000
-6.344000	-8.723001	1003.328003	0.568750	0.056875	-0.861875
0.305000	-12.078000	999.302002	0.861875	-0.144375	-0.888125
-7.137000	-6.527000	1006.072998	0.695625	-0.166250	-0.953750
0.793000	-5.978000	1001.619995	0.818125	-0.236250	-0.958125
-3.782000	-14.213000	999.057983	0.936250	-0.231875	-0.896875
-5.490000	-10.431000	1003.389038	0.809375	-0.083125	-0.949375
-5.368000	-7.930000	1003.083984	0.796250	-0.131250	-1.050000
-9.516000	-12.200000	1001.497986	0.713125	-0.083125	-0.988750
-6.161000	-14.640000	1003.450012	1.146250	-0.140000	-0.980000
-6.832000	-8.235000	1005.036011	0.927500	-0.166250	-1.036875
-13.115000	-11.102000	1005.036011	0.835625	-0.271250	-1.036875
-6.893000	-13.420000	1004.791992	1.045625	-0.415625	-1.015000
-4.819000	-8.113000	1003.694031	1.028125	-0.196875	-0.988750
-4.880000	-8.906000	1003.205994	1.242500	-0.288750	-0.997500
-5.002000	-9.882000	1003.937988	1.246875	-0.371875	-1.028125
-7.808000	-14.762000	1001.619995	1.036875	-0.083125	-1.063125
-8.296000	-14.396000	1003.694031	0.945000	-0.166250	-1.028125
-6.222000	-10.065001	1002.718018	0.686875	-0.061250	-0.927500
-7.564000	-13.176001	997.289001	0.993125	-0.083125	-0.870625
-6.954000	-11.834001	1003.145020	0.761250	-0.061250	-0.875000
-11.102000	-9.577000	1003.572021	0.350000	-0.026250	-0.962500
-9.272000	-13.054000	1004.182007	0.546875	-0.008750	-1.041250
-8.418000	-19.459000	1003.205994	0.498750	-0.122500	-1.019375
-10.980000	-9.028000	1000.156006	0.875000	-0.153125	-1.015000
-4.453000	-9.394000	997.350037	0.796250	-0.122500	-1.098125
-4.148000	-14.945000	1000.949036	0.980000	-0.166250	-1.067500
-9.821000	-12.261000	1002.108032	0.875000	-0.192500	-1.045625
-3.965000	-8.967000	1002.351990	0.905625	-0.096250	-0.918750
-0.793000	-9.516000	1001.742004	0.848750	-0.118125	-0.975625
-7.503000	-11.712000	1001.497986	0.656250	-0.196875	-0.962500
-9.394000	-12.810000	1004.487000	0.542500	-0.039375	-0.997500
-7.564000	-8.479000	1005.523987	0.503125	-0.113750	-0.993125
-4.453000	-11.712000	1006.622009	0.818125	-0.140000	-1.023750
-4.636000	-13.420000	999.484985	1.194375	-0.118125	-0.958125
-2.318000	-11.712000	1002.291016	0.910000	-0.284375	-1.071875
-5.612000	-6.161000	1001.986023	0.621250	-0.201250	-1.036875
-12.505000	-6.344000	1002.473999	0.945000	-0.188125	-0.914375
-6.405000	-14.457000	1002.596008	0.940625	-0.122500	-0.945000
-4.514000	-9.821000	1003.205994	0.765625	0.061250	-0.953750
-6.222000	-13.054000	1003.450012	0.682500	-0.131250	-0.997500
-7.442000	-13.054000	1003.328003	0.708750	-0.214375	-1.098125
-9.394000	-11.224000	1001.864014	0.958125	-0.218750	-0.953750
-0.549000	-13.420000	1003.937988	1.281875	-0.266875	-0.800625
-2.318000	-11.956000	1000.278015	1.093750	-0.231875	-0.940625
-10.797000	-15.128000	1003.999023	0.914375	-0.258125	-0.857500
-2.013000	-7.869000	1000.888000	1.006250	-0.236250	-0.931875
71.003998	-45.201000	1005.218994	0.800625	-0.030625	-1.658125
-254.248001	2.928000	937.265015	0.682500	-0.035000	-13.776875
-7.198000	-15.494000	981.612000	0.406875	0.148750	-1.631875
15.555000	42.090000	977.463989	1.321250	-0.459375	7.415625
-30.256001	-22.448000	1003.937988	0.371875	-0.078750	8.771875
-47.214001	-16.287001	991.554993	0.511875	0.227500	13.046250
-165.615005	-37.027000	1066.401978	1.732500	1.719375	0.774375
-75.029999	78.628998	961.421021	0.822500	1.067500	-26.328751
412.177002	-126.514000	840.397034	1.793750	-0.280000	-23.725624
83.570000	79.971001	854.488037	-1.194375	2.423750	5.998125
-3.965000	-19.825001	1078.296997	0.927500	0.529375	23.213751
-385.825012	-103.395004	990.091003	2.152500	-0.918750	20.041876
-167.262009	-60.389999	1048.833984	0.301875	-0.380625	-0.910000
38.368999	23.607000	989.298035	-2.493750	1.487500	-9.673125
-15.189000	-9.272000	996.679016	-0.533750	0.516250	-5.407500
9.821000	-3.843000	1006.195007	0.660625	0.157500	-6.776875
-5.978000	-2.928000	1005.768005	0.756875	0.021875	-7.144375
-12.383000	-14.945000	1004.669983	0.756875	0.021875	-5.595625
-12.383000	-14.945000	1005.402039	0.861875	0.017500	-5.595625
-2.013000	-7.625000	1005.402039	0.673750	-0.122500	-3.565625
-6.832000	-11.468000	999.363037	0.940625	-0.083125	-1.710625
-14.823000	-8.601000	998.814026	1.102500	-0.126875	-1.522500
0.366000	-25.254000	1004.609009	0.761250	-0.223125	-2.170000
-5.551000	-30.012001	1000.888000	0.883750	-0.323750	-3.635625
-6.832000	-9.699000	1005.707031	0.879375	-0.371875	-4.834375
-8.418000	-20.679001	1003.572021	0.713125	-0.319375	-3.403750
-12.566000	-10.675000	1004.182007	0.958125	-0.030625	-1.911875
-10.736000	-10.858000	1005.036011	0.857500	0.030625	-1.338750
-0.366000	-9.516000	10
513.497986	-23.607000	890.539001	0.065625	-1.303750	-22.793751
166.225006	44.347000	993.812012	1.264375	-1.916250	2.935625
-93.878998	38.796001	1021.750000	0.485625	-2.463125	43.448124
22.753000	-60.573002	1037.365967	-0.074375	-0.087500	12.556250
-228.750000	-67.039001	1053.713989	0.240625	0.638750	-14.840000
147.559006	56.119999	909.754028	1.640625	-1.496250	-43.286251
158.722000	19.886000	1003.816040	1.443750	-1.242500	-11.361875
-153.354004	31.110001	1132.098999	1.001875	-0.651875	30.970625
-22.021000	-85.339005	1019.309998	0.651875	0.498750	16.821875
-168.908997	-49.105000	1016.626038	0.061250	1.041250	-5.210625
-30.988001	31.293001	1061.034058	0.520625	1.225000	-34.720001
-73.504997	18.056000	1085.129028	-1.076250	0.406875	-11.996250
-39.589001	-49.043999	1012.051025	0.262500	0.087500	-6.343750
-2.989000	-4.270000	975.085022	1.181250	-0.371875	-16.034374
0.915000	-12.871000	998.265015	0.748125	-0.113750	-5.254375
7.381000	-13.542000	1003.023010	0.826875	-0.315000	-0.958125
-7.808000	-8.113000	997.716003	0.791875	-0.196875	-1.185625
-16.287001	-6.466000	1001.559021	0.612500	-0.157500	-1.015000
-12.749001	-10.248000	1006.561035	0.717500	-0.223125	-0.805000
-0.488000	-6.649000	1000.460999	0.713125	-0.258125	-0.765625
1.708000	-10.980000	1005.463013	0.538125	-0.236250	-0.971250
-12.322001	-7.869000	1004.426025	0.700000	-0.043750	-1.041250
-14.518001	-11.224000	1007.293030	0.831250	-0.074375	-0.914375
-8.845000	-10.248000	1002.840027	0.848750	-0.148750	-0.927500
-1.403000	-11.224000	999.911987	1.028125	-0.087500	-1.010625
-3.782000	-11.590000	1003.389038	0.603750	-0.135625	-1.076250
-8.845000	-11.346000	1005.280029	0.490000	-0.188125	-0.997500
-12.566000	-12.566000	1004.304016	0.870625	-0.245000	-0.861875
-7.137000	-8.479000	1002.473999	0.866250	-0.196875	-0.888125
0.671000	-6.588000	999.424011	1.273125	-0.249375	-0.888125
-4.880000	-8.784000	998.814026	1.067500	-0.109375	-0.984375
-14.945000	-9.394000	1003.145020	0.980000	-0.249375	-0.949375
-7.869000	-12.200000	1001.986023	0.883750	-0.231875	-0.988750
-2.623000	-15.250000	1003.328003	0.791875	-0.170625	-0.918750
1.403000	-9.699000	1000.522034	0.949375	-0.179375	-0.927500
-4.819000	-7.686000	1002.351990	1.168125	-0.205625	-0.980000
-15.921000	-11.346000	1003.450012	0.616875	0.021875	-0.949375
-6.893000	-13.176001	999.302002	0.730625	0.004375	-0.962500
-1.891000	-17.690001	1002.535034	0.770000	-0.083125	-0.958125
-5.978000	-10.797000	1004.914001	0.805000	-0.201250	-0.866250
-5.002000	-12.444000	1002.351990	0.879375	-0.122500	-0.984375
-7.564000	-7.015000	1005.463013	0.879375	-0.140000	-0.914375
-7.564000	-10.736000	1002.108032	0.914375	-0.140000	-0.914375
-8.174000	-10.736000	1002.108032	1.216250	-0.175000	-0.945000
-1.037000	-13.664001	1003.450012	0.778750	-0.192500	-0.945000
-3.294000	-10.675000	1001.132019	0.691250	-0.227500	-0.975625
-14.579000	-12.078000	1001.010010	0.818125	-0.205625	-1.045625
-11.956000	-9.882000	1006.804993	0.984375	-0.210000	-0.993125
-6.527000	-9.638000	1002.596008	0.717500	-0.192500	-0.875000
-4.148000	-10.736000	1003.205994	0.875000	-0.008750	-0.936250
-6.222000	-10.248000	1004.059998	0.494375	-0.008750	-0.905625
-6.832000	-7.930000	1002.596008	0.651875	-0.420000	-0.958125
-7.076000	-5.978000	1002.718018	0.770000	-0.236250	-0.975625
-10.858000	-14.701000	1005.158020	0.660625	-0.131250	-0.962500
-2.989000	-11.529000	1002.718018	0.756875	-0.052500	-0.940625
-3.538000	-8.113000	1001.864014	0.743750	-0.135625	-1.023750
-11.163000	-16.409000	1000.643982	1.058750	-0.118125	-1.085000
-11.346000	-11.895000	1003.755005	1.111250	-0.293125	-0.866250
-5.185000	-10.126000	1004.182007	1.211875	-0.008750	-0.809375
-2.501000	-13.054000	1000.400024	1.141875	-0.048125	-0.940625
-9.699000	-12.932000	1001.376038	0.984375	-0.135625	-0.953750
-14.274000	-7.869000	1003.450012	1.089375	-0.441875	-0.875000
-6.161000	-9.760000	1000.278015	0.962500	-0.354375	-0.905625
-4.148000	-13.054000	1002.656982	1.141875	-0.310625	-0.870625
-8.052000	-8.235000	1002.473999	0.896875	-0.196875	-0.988750
-8.418000	-10.248000	1005.463013	0.796250	-0.354375	-0.953750
-12.810000	-9.028000	1002.718018	0.888125	-0.415625	-0.945000
-6.893000	-9.150001	1002.108032	1.050000	-0.612500	-0.923125
-6.954000	-10.858000	1001.986023	0.546875	-0.231875	-0.905625
-9.882000	-10.126000	1004.182007	0.713125	0.056875	-0.901250
-8.174000	-8.662000	1002.718018	0.892500	0.144375	-0.980000
-7.198000	-13.542000	1008.025024	0.756875	-0.218750	-0.962500
-2.745000	-14.274000	1001.681030	1.198750	-0.157500	-0.997500
-9.211000	-10.431000	999.911987	1.085000	-0.205625	-0.971250
-7.686000	-14.030000	1001.376038	1.015000	-0.118125	-1.023750
-11.590000	-11.834001	1002.596008	0.756875	-0.192500	-0.971250
-8.113000	-10.248000	1000.156006	0.962500	-0.236250	-0.949375
-4.453000	-8.052000	1001.986023	0.791875	-0.192500	-1.054375
-10.065001	-10.614000	1002.718018	0.980000	-0.249375	-1.102500
-2.745000	-14.030000	1005.341003	0.931875	-0.100625	-0.966875
-1.952000	-8.357000	1000.765991	1.281875	-0.161875	-0.975625
-10.309000	-11.224000	1006.195007	0.901250	-0.131250	-1.036875
-4.697000	-9.272000	1003.694031	0.770000	-0.153125	-1.071875
-6.100000	-10.492001	1002.596008	0.861875	-0.231875	-1.010625
-5.124000	-10.736000	1003.450012	0.966875	-0.201250	-1.006250
-0.183000	-13.908000	1007.293030	0.984375	-0.122500	-0.975625
-11.651000	-16.226000	1003.572021	0.529375	-0.078750	-0.910000
-6.161000	-9.089000	1004.426025	0.581875	-0.144375	-0.931875
-5.002000	-10.614000	999.241028	0.835625	-0.170625	-0.892500
-5.002000	-13.542000	1000.643982	0.875000	-0.196875	-0.883750
-10.919000	-13.298000	1002.596008	0.752500	-0.017500	-0.931875
-6.771000	-13.054000	1002.596008	1.102500	-0.035000	-0.840000
-6.222000	-9.089000	1003.450012	0.940625	-0.131250	-0.857500
-4.270000	-10.980000	1002.962036	0.848750	-0.144375	-1.036875
-5.856000	-13.908000	1002.840027	0.739375	-0.201250	-0.958125
-7.442000	-10.675000	1004.182007	1.089375	-0.258125	-1.001875
-14.335000	-12.444000	1000.888000	0.840000	-0.087500	-1.006250
-8.235000	-8.235000	999.179993	0.901250	-0.161875	-0.840000
-3.111000	-10.736000	1005.096985	0.988750	-0.188125	-0.958125
-5.490000	-14.762000	1001.254028	0.988750	-0.175000	-0.896875
-7.320000	-9.211000	1002.351990	1.001875	-0.039375	-0.931875
-3.843000	-13.054000	1003.937988	0.695625	-0.096250	-0.988750
-8.418000	-10.858000	1004.914001	0.875000	-0.218750	-1.093750
-5.307000	-9.150001	1006.134033	0.853125	-0.140000	-0.980000
-8.662000	-8.174000	1004.791992	0.555625	-0.083125	-0.988750
-6.588000	-10.614000	1001.010010	0.923125	-0.175000	-0.988750
-7.076000	-7.930000	1001.864014	1.089375	-0.148750	-0.936250
-9.272000	-6.954000	1007.293030	1.023750	-0.227500	-0.997500
-7.198000	-7.076000	1005.402039	1.028125	-0.144375	-0.958125
-7.930000	-10.980000	1001.742004	0.896875	-0.122500	-0.975625
-9.638000	-7.869000	1001.132019	1.102500	-0.135625	-1.036875
-4.453000	-11.468000	1000.643982	0.770000	-0.105000	-0.931875
-9.028000	-7.137000	1004.364990	0.809375	-0.153125	-1.063125
-6.161000	-14.945000	1002.230042	0.822500	-0.131250	-1.036875
-8.540000	-9.577000	1004.242981	0.695625	-0.240625	-0.892500
-7.442000	-12.688000	1002.230042	0.450625	-0.218750	-0.896875
-4.819000	-17.934000	1003.816040	0.975625	-0.223125	-0.984375
-7.686000	-11.529000	1004.914001	0.831250	-0.188125	-1.006250
-10.126000	-8.601000	1001.376038	0.822500	-0.266875	-1.071875
-11.590000	-10.370000	998.692017	1.006250	-0.017500	-1.076250
-8.235000	-12.322001	1004.975037	1.032500	-0.188125	-0.940625
-2.745000	-11.834001	999.546021	1.032500	-0.113750	-0.971250
-1.220000	-12.810000	1005.829041	0.643125	-0.113750	-0.971250
-1.220000	-12.810000	1005.829041	0.896875	-0.078750	-0.980000
-5.368000	-11.956000	1010.343018	0.735000	-0.236250	-0.940625
-6.832000	-11.590000	1000.949036	0.791875	-0.245000	-0.962500
-5.002000	-9.028000	1001.254028	0.927500	-0.301875	-0.918750
-5.856000	-12.322001	997.960022	0.791875	-0.223125	-1.063125
-11.102000	-10.126000	1002.778992	0.450625	-0.262500	-1.071875
-6.405000	-7.930000	1005.158020	1.028125	-0.175000	-1.032500
-5.490000	-9.760000	1003.083984	1.168125	-0.091875	-1.045625
-5.612000	-16.531000	1002.596008	1.421875	-0.144375	-0.962500
-5.490000	-10.187000	1005.158020	1.316875	-0.179375	-0.993125
-3.660000	-16.042999	998.875000	0.533750	-0.021875	-0.936250
-9.821000	-7.259000	1005.829041	1.019375	-0.100625	-0.888125
-3.843000	-10.370000	1002.473999	1.036875	-0.223125	-0.936250
-8.784000	-8.296000	1001.132019	0.835625	-0.428750	-0.953750
-5.795000	-13.542000	1004.364990	0.971250	0.026250	-1.006250
-14.213000	-12.688000	1000.643982	0.962500	-0.161875	-1.080625
-12.078000	-7.991000	1000.156006	1.071875	-0.398125	-1.045625
-9.455000	-10.492001	1000.156006	1.111250	-0.406875	-0.997500
-0.793000	-8.174000	1001.376038	0.656250	-0.319375	-0.949375
-7.137000	-10.004000	1000.522034	0.590625	0.008750	-0.945000
-7.198000	-13.298000	1003.205994	1.054375	-0.223125	-0.931875
-10.736000	-15.860001	1003.937988	0.678125	-0.266875	-0.883750
-7.015000	-10.187000	1001.742004	0.883750	-0.358750	-0.870625
-3.965000	-10.614000	1001.986023	1.295000	-0.157500	-0.945000
-12.017000	-9.272000	1002.718018	1.321250	-0.161875	-1.023750
-3.721000	-7.442000	1004.791992	0.848750	-0.315000	-0.910000
-6.588000	-12.566000	1003.816040	0.945000	-0.100625	-0.927500
-9.028000	-10.492001	1001.619995	0.831250	-0.140000	-0.966875
-6.649000	-11.712000	1005.950989	0.511875	0.035000	-0.997500
