A_X [mg]	A_Y [mg]	A_Z [mg]	G_X [dps]	G_Y [dps]	G_Z [dps]
86.070999	-36.478001	1017.114014	4.208750	7.284375	2.856875
35.624001	11.956000	1004.609009	8.246875	25.781876	2.078125
26.230000	9.394000	1014.613037	-2.375625	4.746875	-2.922500
32.390999	2.745000	1008.757019	-1.216250	-2.975000	-2.979375
40.564999	1.037000	1013.637024	3.263750	-2.992500	-0.704375
39.101002	1.281000	1011.989990	3.180625	-4.375000	0.437500
40.931000	3.660000	1019.249023	2.716875	-5.661250	0.459375
50.325001	13.664001	1020.041992	0.271250	-2.056250	-0.363125
49.043999	7.686000	1016.747986	-1.977500	-0.818125	-1.295000
46.665001	10.797000	1021.811035	-2.038750	1.763125	-1.811250
40.992001	16.348000	1035.536011	-3.228750	-0.420000	-1.281875
39.589001	6.893000	1043.526978	-9.458750	-2.209375	2.428125
22.204000	24.583000	1001.192993	-8.575000	-12.171250	4.510625
104.614998	-38.307999	1023.335999	-7.021875	-26.123125	6.545000
92.170998	-30.316999	1034.803955	10.758125	-10.465000	8.299375
97.478004	-19.459000	1002.413025	16.961876	3.845625	5.884375
88.633003	23.912001	999.424011	17.071251	1.216250	3.368750
87.718002	53.070000	1024.677979	3.023125	-3.758125	3.745000
97.051003	24.156000	1007.231995	-10.355625	-8.382500	1.159375
104.554001	20.191000	999.424011	-8.168125	-0.472500	0.157500
108.092003	15.799000	1009.062012	-4.095000	-6.365625	-1.697500
120.474998	2.562000	990.091003	-4.138750	4.795000	-0.013125
111.569000	-8.906000	992.408997	-7.481250	0.275625	1.671250
97.599998	-1.403000	1009.733032	-8.693125	1.281875	1.404375
91.500000	-31.293001	1001.619995	-6.422500	0.743750	-0.875000
66.184998	-9.211000	1012.783020	-4.143125	-1.767500	-4.519375
51.850002	-8.174000	1025.654053	-5.757500	-5.337500	-4.025000
59.719002	-38.003002	996.984009	-7.393750	-21.945000	-1.089375
74.237000	-15.006001	1053.225952	-2.703750	-6.947500	-1.911875
115.290001	-29.036001	1057.130005	-12.543125	4.379375	-2.686250
119.011002	-48.494999	1005.463013	-2.266250	8.089375	-1.526875
126.758003	-15.494000	998.204041	2.795625	12.184375	2.187500
140.300003	-40.564999	1003.450012	0.879375	10.316250	0.971250
133.589996	-42.577999	1025.898071	4.042500	8.172500	-0.686875
131.759995	-40.015999	992.653015	0.507500	7.678125	0.118125
119.987000	-50.569000	1002.962036	4.016250	6.995625	-1.268750
115.290001	-41.907001	994.056030	1.019375	14.043750	-0.927500
86.925003	-44.834999	993.018982	-0.844375	14.345625	-1.041250
73.016998	-49.532001	993.324036	0.875000	9.043125	-1.946875
66.368004	-40.564999	1009.671997	6.186250	14.835625	0.008750
43.066002	-20.740000	1010.770020	7.310625	20.400625	0.634375
40.931000	-29.036001	1019.676025	10.101875	28.288750	1.032500
-0.122000	-7.137000	1027.849976	8.968750	32.235001	0.266875
-6.527000	9.455000	1019.249023	2.200625	11.624375	-0.288750
-5.917000	18.788000	1036.511963	-1.601250	2.375625	0.494375
1.281000	4.392000	1026.630005	-8.071875	1.137500	-0.350000
-8.052000	-8.174000	1032.119995	-7.686875	6.457500	-2.642500
-10.248000	-12.444000	1023.640991	-7.616875	1.806875	-7.826875
-32.939999	-12.932000	1005.218994	-2.874375	6.295625	-8.260000
-22.326000	-11.834001	1009.916016	2.922500	2.288125	-5.061875
-24.156000	-9.882000	1017.723999	0.822500	3.425625	-2.253125
-33.672001	-27.084000	1027.789062	5.923750	0.945000	-0.052500
-33.428001	-28.304001	1021.505981	9.918125	6.308750	-0.787500
-32.452000	-26.352001	994.483032	6.339375	4.418750	-3.801875
-44.713001	-14.518001	1004.121033	4.370625	8.776250	-7.118125
-49.532001	28.914000	1027.301025	-5.206250	3.093125	-8.120000
-43.431999	27.511000	1019.309998	-9.870000	2.200625	-3.351250
-42.639000	19.093000	1013.637024	-11.090625	4.182500	2.415000
-51.300999	-5.185000	1010.403992	-3.801875	4.151875	1.461250
-58.316002	-4.148000	1001.192993	6.208125	1.968750	0.774375
-60.451000	-32.025002	1011.807007	3.325000	-3.526250	-1.557500
-53.497002	-32.757000	1036.390015	2.983750	1.085000	-2.813125
-49.532001	-25.010000	1006.561035	-4.948125	4.948125	-0.472500
-59.779999	-43.310001	991.127991	-0.437500	4.742500	0.918750
-67.527000	-26.169001	1000.095032	2.708125	-2.712500	0.468125
-49.776001	-13.054000	1026.630005	0.984375	-8.001875	-1.557500
-35.075001	-16.104000	1002.718018	3.408125	-2.200625	-0.126875
-50.386002	-10.248000	1020.286011	-3.543750	-2.546250	0.651875
-58.560001	-3.721000	1014.674011	-1.391250	-0.726250	-1.176875
-55.388000	0.854000	1024.190063	3.565625	-1.505000	-2.428125
-47.580002	2.562000	1024.921997	4.672500	-0.560000	-1.544375
-45.018002	7.381000	1019.005005	4.029375	-0.525000	0.105000
-37.514999	-10.309000	1017.480042	-3.561250	1.290625	0.888125
-40.382000	-11.224000	1001.864014	-2.358125	4.331250	-0.446250
-44.408001	-15.494000	1002.046997	2.826250	2.681875	-1.780625
-38.430000	8.479000	1027.422974	2.226875	1.421875	0.113750
-24.644001	12.444000	1018.822021	1.890000	-7.332500	2.082500
-45.872002	11.102000	1015.345032	1.596875	0.892500	3.889375
-35.929001	3.172000	1025.531982	-1.050000	0.673750	1.098125
-41.358002	0.000000	1034.072021	-2.883125	2.406250	-1.824375
-42.456001	-8.479000	1029.130981	-6.623750	3.583125	-2.891875
-47.702000	-19.580999	1025.898071	-6.020000	4.554375	-1.885625
-42.517002	-14.640000	989.481018	-5.158125	2.515625	-0.201250
-34.342999	-24.217001	997.411011	-4.099375	-4.550000	0.564375
-30.256001	-23.424000	1020.468994	-5.604375	-4.396875	1.058750
-39.223000	-19.642000	1007.231995	-4.186875	-3.171875	1.023750
-38.612999	-21.655001	983.015015	-0.183750	-7.301875	0.087500
-29.402000	-20.191000	1033.401001	-0.188125	-16.651251	-4.025000
-9.089000	-11.529000	1031.083008	2.489375	-8.465625	-2.843750
-17.263000	-18.483000	1016.260010	5.652500	-0.958125	-0.266875
-11.163000	-11.712000	1029.009033	0.240625	-0.883750	2.362500
-7.015000	-12.566000	1031.875977	-0.739375	2.568125	2.905000
-18.971001	-26.657000	1018.455994	0.516250	5.455625	1.583750
-16.653000	-23.912001	1011.380005	1.351875	2.305625	0.249375
-30.316999	-9.516000	1023.275024	1.365000	2.021250	-1.338750
-26.108000	-5.856000	1000.338989	-0.323750	2.485000	0.183750
-27.877001	-16.348000	1036.878052	-1.951250	1.093750	0.608125
-3.355000	-25.193001	1050.664062	2.450000	1.636250	0.822500
-23.424000	-22.691999	977.158997	1.789375	12.683125	2.625000
-35.806999	-19.642000	993.080017	-3.272500	-0.988750	0.083125
-33.367001	-13.298000	1014.674011	-3.346875	-4.480000	-2.633750
-25.254000	6.405000	1047.187012	-2.625000	1.071875	-4.020625
-23.424000	-15.616000	1007.476013	1.303750	5.320000	-1.063125
-19.398001	-15.128000	1014.979004	4.681250	-0.122500	1.448125
-18.177999	-15.799000	994.605042	8.128750	1.474375	1.763125
-24.948999	-14.152000	1000.156006	9.126250	-0.485625	0.476875
-20.557001	3.904000	1007.903015	2.191875	-4.641875	-1.190000
-20.191000	-2.196000	1019.432007	-8.732500	1.815625	-3.062500
-10.553000	-5.307000	1079.883057	-15.885625	-0.284375	-8.163750
-23.546000	-17.019001	1044.930054	-14.100625	16.948750	-7.122500
-52.764999	-19.398001	993.263000	-13.020000	12.836250	-3.661875
-45.811001	-44.652000	1025.593018	3.294375	-0.485625	0.498750
-35.868000	-44.408001	998.387024	12.941250	2.909375	3.447500
-37.453999	-33.428001	990.335022	14.083125	-1.211875	2.616250
-37.820000	-8.784000	1009.428040	4.169375	-2.625000	0.406875
-36.966000	-2.989000	1029.009033	-1.238125	-2.253125	-2.016875
-39.528000	7.442000	1018.212036	-2.550625	2.568125	-2.721250
-38.063999	-1.220000	1030.473022	-4.060000	-0.476875	-2.336250
-31.354000	-17.507000	1018.639038	-3.381875	2.043125	-1.356250
-24.827000	-19.398001	1028.093994	-4.029375	0.301875	-0.962500
-35.868000	-21.899000	1000.888000	-0.577500	-0.218750	-0.647500
-39.284000	-26.352001	990.457031	0.704375	-0.236250	0.105000
-41.968002	-27.267000	1002.230042	0.988750	-2.038750	0.721875
-28.670000	-21.228001	1030.534058	4.370625	-1.898750	-0.533750
-35.136002	-22.448000	1017.114014	5.131875	-0.971250	-0.546875
-31.415001	-12.200000	1019.309998	1.671250	-2.401875	-0.752500
-27.632999	-17.568001	1011.562988	2.883125	-1.373750	-0.616875
-25.071001	2.257000	991.738037	3.163125	-2.463125	-0.035000
-27.267000	21.167000	1027.666992	4.335625	-3.871875	-1.522500
-22.631001	18.117001	1037.122070	0.223125	-0.315000	-2.113125
-22.936001	2.684000	1004.548035	-3.635625	3.447500	-1.290625
-16.165001	-11.712000	1011.014038	-4.099375	0.826875	-1.325625
-26.535000	-16.226000	1029.984985	-3.946250	2.323125	-0.678125
-33.428001	-11.285000	1012.966003	0.017500	1.942500	-0.503125
-32.574001	-4.697000	1006.500000	7.000000	-1.596875	-1.128750
-21.350000	-1.342000	1024.556030	4.681250	-0.665000	-2.476250
-17.202000	5.734000	1002.656982	-3.727500	3.106250	-3.027500
-17.568001	-3.050000	1010.465027	-6.488125	0.573125	-2.323125
-22.570000	-10.248000	1016.931030	-0.498750	-2.327500	-0.284375
-20.496000	-12.078000	1015.406006	3.189375	-3.850000	1.225000
-13.176001	-0.549000	1024.190063	5.761875	-1.229375	2.651250
-19.093000	-13.054000	1019.737000	1.802500	-0.109375	3.150000
-16.409000	2.623000	1016.869995	4.239375	-1.470000	1.159375
-27.267000	12.688000	1016.442993	3.368750	-2.034375	-0.665000
-11.224000	43.737000	1027.301025	2.069375	-4.213125	-1.964375
-9.394000	37.088001	1025.287964	-2.170000	1.653750	-0.179375
-14.640000	13.725000	1018.760986	-4.506250	2.441250	-1.050000
-13.664001	4.880000	1025.044067	-6.291250	3.088750	-3.460625
-6.344000	-11.468000	1017.358032	-5.013750	6.033125	-2.480625
-17.568001	-9.150001	995.276001	1.133125	-1.080625	1.299375
-6.039000	-10.553000	996.617981	7.643125	-1.745625	3.539375
-0.793000	6.344000	1023.458008	10.981250	-7.892500	3.591875
-6.832000	19.398001	1021.750000	2.808750	-1.054375	0.490000
-10.858000	13.481000	1018.578003	-10.583125	4.182500	-1.487500
-13.786000	9.577000	1032.364014	-11.011875	1.338750	-2.170000
-22.326000	8.418000	1034.926025	-4.978750	1.750000	-1.281875
-17.385000	-4.148000	1033.339966	-2.371250	0.100625	0.958125
-21.716000	-14.091001	1025.410034	-3.259375	2.143750	2.423750
-16.348000	-22.691999	1013.942017	0.726250	0.875000	1.290625
-14.396000	-4.148000	1003.389038	2.436875	0.993125	-0.507500
-15.250000	2.745000	1005.523987	0.980000	-3.657500	-1.198750
0.000000	0.488000	1011.441040	-0.039375	-4.886875	0.087500
6.344000	-2.440000	1026.081055	2.563750	-2.388750	2.038750
-1.647000	4.331000	1018.944031	0.599375	4.716250	3.714375
-6.283000	-10.858000	1027.545044	-3.355625	6.518750	0.848750
-16.165001	-3.721000	1025.654053	-4.103750	7.043750	-1.430625
-10.736000	-7.137000	1006.134033	-5.595625	4.344375	-2.498125
-16.469999	-7.869000	1017.419006	-2.695000	2.642500	-1.557500
-16.958000	-15.738000	1003.328003	-1.190000	0.214375	0.214375
-21.045000	-29.341000	1019.981018	-2.130625	0.210000	-0.336875
-25.925001	-22.448000	1027.545044	-1.391250	-0.231875	-0.481250
-23.607000	-21.594000	1012.234009	-2.043125	-0.301875	-0.039375
-23.668001	-17.568001	1017.541016	-0.310625	-2.021250	-0.586250
-16.104000	-7.320000	1013.637024	1.526875	-1.273125	-1.159375
-19.886000	-6.466000	1012.783020	-0.778750	-0.875000	-0.953750
-10.858000	1.342000	1011.197021	-2.625000	-1.111250	-1.456875
-10.370000	-19.276001	1007.354004	1.623125	-1.439375	-0.437500
-13.969000	-16.165001	1014.369019	6.181875	-0.560000	-0.004375
-10.004000	-8.784000	1010.281982	7.415625	0.061250	0.328125
-10.858000	-2.135000	1004.059998	4.501875	-0.166250	-0.144375
-8.174000	7.320000	1023.213989	-3.928750	-0.061250	-1.233750
-11.041000	-2.989000	1010.281982	-4.930625	2.060625	-3.237500
-12.444000	-7.564000	1019.919983	-2.432500	-1.400000	-3.736250
-7.808000	-6.588000	1026.324951	1.050000	-0.354375	-1.938125
-7.503000	-17.446001	1016.199036	3.263750	-1.491875	-1.767500
-7.564000	-17.873001	1013.942017	-0.756875	-0.126875	-1.137500
-2.013000	-16.165001	1014.674011	-2.091250	0.896875	-1.916250
-10.797000	-7.320000	1013.088013	-1.806875	-1.185625	-0.704375
-1.647000	11.590000	1021.505981	-3.425625	-2.191875	-1.841875
-3.355000	0.976000	1024.677979	-1.697500	-7.481250	-2.436875
2.684000	-10.187000	1022.726013	-1.194375	-4.637500	-2.594375
10.492001	-13.725000	1042.245972	4.703125	-5.543125	-1.846250
13.725000	-9.882000	1038.036987	14.192500	-8.750000	-0.297500
19.459000	4.819000	1009.671997	28.218750	-5.171250	0.713125
25.498001	30.927000	1026.691040	28.161875	-2.874375	2.016875
18.117001	61.610001	1003.632996	7.266875	3.220000	2.590000
33.549999	60.817001	1010.708984	-12.455625	12.114375	-2.091250
6.954000	34.831001	1015.588989	-25.466875	9.528750	-5.044375
1.281000	7.259000	1018.822021	-23.008125	10.246250	-6.094375
-2.379000	-5.612000	1024.129028	-6.475000	10.889375	-2.336250
-17.507000	1.464000	1007.842041	9.305625	6.440000	-1.036875
-23.302000	16.531000	1009.916016	12.390000	2.275000	2.305625
-25.315001	20.007999	1017.663025	14.953750	-7.551250	4.602500
61.732002	3.172000	956.236023	-14.616875	0.700000	-2.808750
-11.956000	4.636000	1035.170044	-14.708750	-0.415625	3.696875
23.607000	13.176001	1019.249023	-11.173750	-3.163125	-2.152500
45.811001	51.850002	972.583984	-3.224375	-2.804375	-5.683125
-32.635002	-11.346000	1043.039062	-2.568125	0.861875	0.494375
0.610000	0.366000	1019.127014	3.854375	9.533125	0.590625
-43.066002	3.294000	1017.601990	-1.798125	4.965625	-0.476875
-15.128000	-1.708000	987.346008	-8.216250	3.596250	1.645000
16.653000	-22.997000	1026.751953	-7.686875	-2.848125	1.968750
-10.370000	-15.189000	1035.536011	6.558125	2.100000	0.188125
-19.825001	5.307000	1034.193970	15.085000	9.196250	4.462500
-36.722000	9.943000	1007.171021	10.788750	6.195000	3.618125
-24.948999	1.769000	999.606995	-1.535625	1.006250	2.100000
-16.592001	3.721000	1024.556030	-1.732500	-2.738750	-0.485625
-17.019001	4.758000	1002.230042	-5.289375	1.220625	1.163750
73.871002	-2.257000	982.466003	-7.411250	2.178750	-4.248125
11.163000	4.636000	1054.812012	-7.765625	-6.597500	1.951250
-13.847000	-18.666000	1027.484009	1.605625	0.258125	0.669375
-17.995001	-6.832000	1023.702026	6.741875	1.413125	-0.210000
-11.407001	13.664001	1002.413025	6.103125	6.383125	-0.717500
-10.431000	12.871000	1012.843994	-2.266250	11.606875	-0.078750
-12.993000	16.775000	1062.925049	-8.290625	6.982500	2.848125
-39.589001	-8.418000	1042.795044	-7.577500	7.564375	2.760625
-49.837002	-14.274000	1014.125000	-5.582500	8.085000	2.047500
-54.046001	-1.708000	1003.816040	1.036875	6.956250	-0.700000
-57.827999	-12.444000	979.598999	2.253125	8.973125	-0.105000
-57.218002	-7.015000	980.026001	4.055625	1.977500	-0.691250
-54.411999	-19.520000	993.202026	5.801250	-1.675625	-0.284375
-45.811001	-8.235000	1022.665039	2.546250	-1.715000	-0.406875
-55.815002	-2.318000	1016.626038	3.570000	-0.424375	0.437500
-50.691002	12.017000	1016.015991	6.623750	-3.171875	0.406875
-46.237999	11.224000	1013.820007	9.944375	-4.007500	0.713125
-41.358002	22.570000	1025.348999	8.050000	-0.201250	0.297500
-52.459999	31.415001	1017.114014	-8.356250	-1.133125	-0.100625
-30.683001	15.189000	1024.556030	-17.228750	-7.888125	-2.366875
-35.806999	10.248000	1032.852051	-17.876249	2.585625	-1.706250
-31.659000	-18.788000	999.424011	-13.759375	9.406250	0.393750
-43.066002	-28.304001	998.020996	-4.523750	7.813750	2.371250
-61.000000	-32.879002	980.453003	7.420000	-0.148750	-4.480000
-42.456001	-9.699000	1000.522034	8.671250	2.003750	1.995000
-29.585001	14.457000	992.348022	-2.493750	-1.316875	0.455000
-41.480000	2.867000	1026.385986	-6.107500	-4.777500	0.844375
-56.181000	-31.842001	1026.081055	3.731875	-6.685000	-0.551250
-38.368999	-14.701000	1013.942017	6.584375	-6.829375	-1.981875
-36.295002	-2.135000	1033.828003	2.388750	-8.019375	-0.840000
-28.792000	-10.004000	1041.635986	1.093750	-5.888750	-2.305625
-18.849001	-1.647000	1022.543030	1.098125	-0.962500	-2.616250
-18.361000	2.135000	1004.609009	-0.958125	0.721875	-2.988125
-24.521999	-11.956000	1020.468994	-0.450625	-0.175000	-2.174375
-23.424000	-4.941000	1014.796021	0.735000	6.693750	-1.299375
-39.161999	5.734000	996.801025	-1.815625	7.153125	0.472500
-42.700001	-17.750999	1023.275024	-1.518125	7.516250	1.741250
-45.139999	-14.762000	1016.199036	-0.765625	1.833125	1.986250
-37.820000	-7.442000	1033.401001	-1.872500	1.780625	3.066875
-28.548000	-11.590000	995.398010	5.254375	0.122500	3.303125
-42.456001	-3.904000	998.936035	0.503125	-1.754375	1.050000
-50.874001	8.357000	1017.785034	0.271250	-1.255625	-5.556250
-55.265999	32.818001	1021.872009	-0.026250	1.487500	-9.773750
-34.282001	27.938000	1031.815063	4.042500	-1.360625	-6.457500
-29.707001	19.032000	1031.815063	5.652500	0.818125	0.459375
-10.126000	-8.296000	1026.691040	4.786250	-0.630000	7.542500
-18.910000	-24.644001	1016.809021	3.570000	2.148125	5.783750
-49.471001	-17.873001	997.228027	-3.119375	4.217500	-1.216250
-52.094002	7.259000	1008.695984	-9.209375	4.186875	-7.415625
-50.020000	26.169001	1002.351990	-5.153750	6.418125	-6.475000
-37.514999	-3.233000	1038.890991	1.098125	0.437500	2.008125
-32.879002	-7.198000	1051.701050	5.963125	-6.330625	8.535625
-33.062000	-8.357000	1029.070068	7.433125	5.105625	12.919375
-41.968002	5.673000	1010.038025	17.184999	-1.557500	8.391250
-37.942001	35.196999	997.960022	12.963125	-0.476875	1.592500
-33.611000	41.663002	1015.528015	-5.381250	0.726250	-6.085625
-28.059999	31.415001	1006.439026	-6.457500	2.891875	-9.305625
-39.771999	16.469999	1007.720032	-4.781875	4.138750	-2.861250
-40.320999	7.381000	1017.906982	7.319375	2.065000	3.526250
-33.855000	21.899000	1020.957031	9.445625	3.316250	7.126875
-56.608002	50.630001	997.898987	12.171250	2.253125	2.585625
-42.456001	71.675003	1012.356018	2.362500	-5.451250	-1.382500
-45.262001	84.790001	1037.182983	-9.060625	1.758750	-3.640000
-51.118000	34.221001	1027.362061	-16.476250	1.382500	-3.049375
-43.431999	2.989000	998.387024	-13.466250	-1.198750	0.048125
-43.980999	-25.925001	990.640015	-1.903125	-0.455000	4.873750
-39.711002	8.418000	1029.009033	8.614375	-3.574375	5.394375
-49.410000	46.421001	1029.130981	8.365000	-0.844375	1.583750
-42.151001	77.225998	1025.531982	-5.363750	6.650000	-1.203125
-45.567001	39.223000	1016.015991	-18.676874	6.676250	-1.728125
-61.487999	6.344000	1016.747986	-21.328125	4.620000	-1.001875
-59.048000	-33.244999	1023.092041	-21.564375	2.765000	-2.848125
-57.584000	-41.968002	1007.842041	-13.168750	-1.846250	-3.596250
-41.602001	-28.121000	1014.186035	-4.620000	1.268750	-1.618750
-47.214001	-25.681000	1011.502014	-3.255000	1.465625	-2.401875
-48.922001	-38.307999	1022.116028	-0.266875	-7.564375	-2.948750
-46.237999	-42.272999	1013.088013	4.178125	1.233750	-0.638750
-52.704002	-49.227001	1030.717041	0.581875	0.748125	-0.052500
-54.290001	-41.358002	1034.987061	-2.034375	2.983750	0.476875
-51.240002	-42.761002	1034.803955	2.143750	-4.580625	-0.345625
-43.798000	-33.428001	1008.574036	6.208125	-4.952500	1.198750
-35.014000	-26.840000	999.241028	5.954375	-3.421250	0.778750
-22.448000	-3.050000	1012.966003	5.586875	-12.845000	-1.505000
-29.768000	0.793000	1018.944031	-1.890000	-1.312500	-3.675000
-42.212002	-10.614000	1012.051025	-4.764375	3.718750	-1.929375
-49.837002	-25.132000	1018.090027	-5.433750	2.423750	-0.310625
-29.463001	-35.196999	1018.455994	-3.880625	-0.490000	-0.905625
-16.896999	-16.104000	1007.536987	-0.358750	1.098125	-1.207500
-14.640000	-6.649000	1012.112000	0.393750	-2.380000	-1.793750
-23.973000	-30.927000	1013.393005	-6.138125	-7.608125	-1.255625
-39.040001	-35.746002	1020.225037	-7.293125	-2.568125	-1.058750
-30.805000	-52.887001	1004.853027	0.323750	-0.651875	-1.855000
-20.007999	-40.687000	1002.718018	-1.627500	2.078125	-1.688750
-27.328001	-41.785000	989.968994	7.586250	-2.384375	-1.973125
-27.267000	-48.190002	1006.072998	9.209375	-2.218125	-4.396875
-18.910000	-41.480000	1031.571045	-3.355625	-2.988125	-8.347500
-17.080000	-25.010000	1025.471069	-3.863125	0.459375	-11.116875
-15.616000	-13.725000	1006.377991	-0.420000	2.362500	-10.241875
-5.673000	7.381000	1026.935059	-1.986250	-1.684375	-6.545000
-5.612000	-19.153999	1041.148071	-3.233125	-2.778125	-5.127500
4.087000	-8.418000	1042.551025	-7.743750	-6.335000	-3.281250
-1.952000	-48.799999	1002.108032	-2.301250	10.167500	0.896875
-15.921000	-55.998001	999.911987	2.135000	8.763125	3.311875
-22.936001	-65.514000	1012.843994	-0.931875	10.631250	6.496875
-28.731001	-71.187004	1023.458008	2.603125	4.663750	4.935000
-38.307999	-43.249001	1004.791992	-1.815625	9.555000	2.292500
-26.230000	-37.758999	1015.101013	-5.967500	11.357500	-2.078125
-40.382000	-34.282001	1010.038025	-2.156875	7.336875	-3.828125
-37.332001	-38.552002	999.668030	3.495625	2.804375	-2.366875
-37.088001	-28.487000	1007.231995	5.945625	2.362500	1.509375
-55.815002	-31.476000	1006.988037	11.593750	-1.181250	0.485625
-60.633999	-17.690001	1037.365967	12.586875	-5.652500	-1.159375
-53.741001	4.636000	1037.488037	6.125000	-5.013750	-2.760625
-42.090000	-2.196000	1027.422974	3.220000	-1.557500	-2.655625
-39.589001	-12.261000	1012.234009	-2.511250	2.778125	-3.027500
-40.260002	-23.607000	1011.502014	-6.921250	2.795625	-3.727500
-49.043999	-22.570000	1016.015991	-8.894375	4.221875	-2.196250
-60.817001	-28.670000	1009.611023	-4.821250	4.265625	-0.039375
-58.926003	-32.146999	1020.591003	-0.590625	0.284375	3.062500
-52.826000	-40.382000	1020.408020	3.981250	0.424375	2.975000
-43.249001	-32.025002	1011.867981	3.351250	0.630000	1.701875
-44.408001	-21.777000	999.241028	-2.082500	1.316875	0.568750
-41.968002	-22.082001	1008.940002	-4.781875	1.688750	1.303750
-46.360001	-19.337000	1016.504028	-1.360625	-0.153125	2.751875
-47.640999	-21.350000	1019.187988	-0.888125	0.796250	2.865625
-53.558002	-21.045000	1015.650024	3.163125	-1.561875	1.268750
-59.414001	-15.860001	1008.452026	4.628750	-2.012500	-0.962500
-49.043999	-14.396000	1003.205994	6.531875	-1.299375	-1.995000
-39.711002	-5.490000	1020.895996	2.883125	-0.848750	-0.931875
-36.355999	-17.934000	1023.763000	-1.255625	1.741250	-0.179375
-47.763000	-16.958000	1014.125000	0.507500	1.172500	-1.640625
-41.174999	-18.300001	1025.348999	7.306250	1.128750	-3.167500
-52.338001	-7.564000	1018.395020	13.396250	2.323125	-3.285625
-44.713001	11.041000	1005.585022	13.960625	-5.796875	-0.538125
-43.554001	12.444000	997.593994	7.262500	-2.905000	2.226875
-40.992001	21.106001	1029.192017	0.678125	-2.611875	2.541875
-36.904999	15.311000	1036.328979	-5.149375	-0.665000	0.455000
-40.748001	19.703001	1016.504028	-6.335000	3.552500	-0.459375
-40.625999	9.516000	1033.096069	-8.671250	1.303750	-0.153125
-34.282001	8.113000	1024.006958	-5.022500	2.625000	-0.201250
-43.005001	11.041000	1020.957031	-5.538750	3.968125	0.455000
-44.774002	0.000000	1007.354004	-5.075000	2.909375	-0.542500
-51.179001	-5.490000	1008.513000	-6.531875	3.478125	-1.526875
-44.591000	-12.688000	997.228027	-6.868750	1.575000	-1.588125
-41.663002	-21.289000	1000.583008	0.717500	-3.241875	-1.115625
-48.861000	-30.866001	1035.047974	1.120000	-4.326875	0.984375
-48.739002	-20.374001	1047.492065	0.328125	1.045625	0.630000
-44.164001	-22.448000	1021.811035	-1.758750	3.351250	-1.211875
-42.700001	-13.054000	1014.125000	-4.908750	3.867500	-1.605625
-44.469002	-19.276001	1007.171021	-1.977500	2.826250	0.070000
-40.260002	-17.690001	1019.981018	-0.161875	2.121875	3.071250
-46.421001	-28.182001	1022.054993	-0.210000	1.063125	2.944375
-46.909000	-22.631001	1011.746033	4.611250	1.137500	0.363125
-41.846001	-12.322001	1015.955017	3.272500	-0.966875	-1.596875
-37.820000	-0.061000	1008.268982	7.721875	-1.649375	-2.139375
-34.465000	10.370000	1025.898071	9.646875	-2.590000	-1.938125
-41.236000	8.357000	1029.740967	6.243125	-0.586250	-0.078750
-45.932999	3.172000	1016.504028	3.653125	0.892500	0.175000
-47.091999	-0.732000	1022.970032	1.741250	0.533750	0.665000
-45.262001	-5.978000	1026.264038	-0.923125	1.960000	0.708750
-47.153000	2.257000	1024.067993	-5.923750	4.410000	-0.271250
-50.081001	3.294000	1032.485962	-9.983750	4.357500	0.118125
-64.476997	-7.686000	1004.059998	-12.915000	3.718750	0.441875
-61.976002	-5.978000	1008.940002	-12.355000	8.785000	3.193750
-62.220001	-35.990002	1000.827026	-8.159375	3.911250	3.303125
-59.353001	-40.260002	981.124023	3.211250	0.573125	2.021250
-52.764999	-28.548000	1005.096985	7.546875	-1.811250	-0.665000
-54.046001	5.002000	1046.088989	17.898125	-4.103750	-4.821250
-55.998001	24.278000	1022.238037	11.169375	-6.391875	-4.121250
-56.303001	34.892002	1027.118042	4.086250	-0.192500	-2.095625
-51.484001	21.533001	1014.247009	-2.266250	2.590000	-0.061250
-55.144001	-10.065001	1015.223022	-5.376875	5.455625	0.533750
-51.910999	-9.333000	1013.942017	-8.303750	5.831875	0.140000
-61.671001	-16.775000	1009.671997	-7.726250	3.819375	0.730625
-62.464001	-22.814001	1010.160034	-4.493125	1.181250	-0.472500
-68.442001	-2.745000	1016.260010	-2.340625	0.761250	-0.586250
-57.645000	-8.540000	1020.773987	-1.841875	-0.170625	-0.691250
-60.756001	-8.662000	1019.187988	0.686875	2.257500	-0.778750
-65.758003	-13.725000	1008.330017	-1.303750	0.835625	-0.507500
-65.148003	-10.492001	1016.931030	-1.561875	1.255625	-1.491875
-58.681999	-8.479000	1015.161987	-1.404375	1.268750	-0.840000
-62.830002	-13.420000	1021.872009	2.174375	13.488125	0.529375
-74.419998	-23.546000	1018.639038	-4.891250	0.778750	1.570625
-73.871002	-55.875999	1011.257996	-1.610000	-2.979375	1.386875
-68.807999	-35.136002	1017.846008	-1.071875	-0.494375	-1.238125
-62.890999	-11.590000	1006.622009	-2.773750	0.875000	-1.715000
-69.723000	-9.211000	1030.838989	-2.935625	-2.165625	0.529375
-75.579002	-20.496000	1012.356018	-3.876250	1.855000	1.841875
-74.176003	-19.764000	1018.944031	-2.506875	-0.678125	0.888125
-71.187004	-20.191000	1013.454041	2.047500	0.463750	-0.691250
-65.270004	-14.762000	1019.554016	3.591875	-1.115625	-1.548750
-65.636002	-11.895000	1027.911011	7.148750	-1.400000	-2.384375
-62.159000	-17.690001	1020.835022	13.720000	-3.880625	-1.395625
-59.230999	-10.858000	995.031982	15.649375	-2.375625	0.599375
-61.183002	11.224000	1008.940002	7.511875	0.284375	1.268750
-54.656002	13.298000	1014.307983	-5.306875	2.441250	1.456875
-64.538002	-2.806000	1035.230957	-9.340625	2.428125	-0.568750
-65.270004	-13.481000	1036.145996	-9.244375	4.051250	-0.437500
-71.858002	-20.069000	1009.794006	-4.970000	4.423125	0.402500
-72.711998	-20.007999	1007.963989	-2.480625	3.010000	0.498750
-71.370003	-13.603000	1003.510986	-3.889375	2.091250	0.560000
-69.417999	-14.213000	1013.088013	-3.911250	3.731875	0.647500
-68.076004	-11.834001	1022.116028	-4.921875	2.410625	-0.017500
-77.470001	-24.644001	1015.650024	2.716875	-0.420000	0.091875
-72.834000	-6.039000	1011.135986	3.346875	-2.655625	0.831250
-63.500999	-3.477000	1011.197021	5.569375	-3.167500	1.863750
-33.977001	-35.685001	977.708008	8.255625	-16.152500	2.620625
-35.319000	8.662000	1039.379028	7.494375	-18.917500	5.849375
-37.820000	-6.588000	1025.714966	-0.341250	0.157500	6.903750
-46.237999	-11.590000	1009.671997	2.520000	4.125625	5.670000
-34.342999	-20.069000	1017.785034	0.630000	3.679375	3.810625
-43.554001	-2.745000	1029.009033	0.450625	9.191875	1.347500
-53.253002	2.623000	1028.459961	-3.355625	11.746875	0.000000
-65.758003	-1.525000	1031.448975	-9.038750	6.142500	-1.811250
-62.281002	5.307000	1004.121033	-11.795000	2.043125	-2.861250
-64.293999	-0.793000	1000.705017	-10.438750	-23.576876	-1.347500
-17.812000	-33.733002	1024.312012	-2.673125	-20.173124	3.688125
-30.805000	-41.174999	1008.817993	0.546875	-16.520000	3.780000
-23.424000	-30.378000	1021.627991	4.488750	-12.398750	-0.761250
-12.261000	-23.424000	1025.898071	3.110625	-10.268125	-2.515625
-1.464000	-18.300001	1012.112000	2.139375	-3.482500	-1.863750
4.575000	-14.518001	1010.038025	4.305000	1.098125	-1.312500
0.915000	-16.531000	1007.109985	1.666875	7.402500	0.070000
0.488000	-11.041000	1001.254028	2.082500	11.961250	-1.251250
-19.703001	-15.250000	1010.892029	1.273125	8.076250	-2.318750
-12.261000	-10.736000	1012.661011	0.490000	4.366250	-2.060625
-14.762000	-7.442000	1016.138000	-2.100000	4.348750	-0.980000
-17.323999	-9.882000	1019.737000	-4.274375	-0.284375	-0.126875
-23.790001	-20.740000	1030.594971	-2.170000	1.338750	-0.091875
-23.424000	-22.326000	1034.072021	-1.955625	-0.214375	-0.144375
-32.818001	-21.472000	1022.481995	-1.653750	1.015000	0.126875
-25.498001	-21.960001	1014.796021	-1.417500	2.191875	-0.161875
-26.657000	-11.468000	1019.614990	-1.701875	1.456875	0.765625
-24.278000	-10.614000	1021.079041	1.745625	-0.446250	0.017500
-22.448000	8.967000	999.119019	7.866250	0.472500	-0.245000
-36.539001	-8.845000	997.960022	-0.682500	1.850625	-1.054375
-30.561001	-15.982000	1018.333984	-4.528125	0.297500	-2.191875
-18.239000	-42.395000	1036.145996	-8.246875	3.045000	-1.421875
-29.646000	-41.297001	1011.624023	-4.431875	10.508750	0.284375
-35.014000	-37.271000	1018.273010	4.300625	-0.980000	1.553125
-31.537001	-22.875000	1027.301025	8.347500	-2.681875	3.185000
-30.622000	-17.202000	1018.639038	3.373125	2.909375	5.215000
-30.134001	-7.198000	1025.287964	-3.202500	3.806250	4.694375
-39.528000	-5.490000	1016.747986	-6.020000	8.312500	2.966250
-47.091999	-7.442000	1015.772034	-5.158125	4.716250	0.240625
-50.264000	-8.967000	1010.648010	-2.572500	2.725625	-0.494375
-35.868000	-22.936001	1016.138000	0.787500	1.443750	-0.371875
-39.161999	-26.840000	1010.708984	0.306250	0.328125	-1.719375
-35.501999	-22.570000	1016.260010	0.258125	-0.586250	-3.408125
-45.993999	-19.032000	1013.148987	-2.073750	-0.603750	-2.620625
-40.015999	-29.280001	1027.301025	-1.216250	-1.999375	-0.984375
-52.887001	-28.304001	1028.338013	-0.035000	1.491875	0.695625
-47.091999	-37.942001	1029.009033	-0.415625	3.206875	0.148750
-40.138000	-29.829000	1019.554016	-1.452500	3.543750	-0.892500
-49.593002	-16.896999	992.653015	3.128125	1.203125	-2.030000
-44.529999	2.074000	1016.504028	1.159375	-1.063125	-1.701875
-36.234001	-11.773000	1033.156982	-3.355625	1.356250	-0.940625
-39.711002	-16.348000	1016.199036	2.139375	4.563125	-1.395625
-37.758999	-19.032000	998.936035	3.692500	1.417500	-1.448125
-47.580002	-16.958000	1009.122986	4.611250	0.284375	-2.012500
-51.605999	-16.531000	1017.846008	-0.245000	2.345000	-1.876875
-48.799999	-25.742001	1024.983032	-1.968750	-1.758750	-2.323125
-53.070000	-24.156000	1015.588989	-0.980000	0.503125	-1.382500
-43.126999	-21.594000	1006.255981	-1.080625	2.931250	1.015000
-48.678001	-30.195000	1000.095032	1.793750	1.995000	-0.153125
-50.386002	-16.287001	1000.765991	-0.520625	2.165625	-0.253750
-57.584000	-10.980000	1023.702026	-0.774375	-1.369375	-1.382500
-59.658001	4.758000	1019.919983	4.007500	0.065625	-1.102500
-55.021999	13.664001	1038.159058	0.450625	1.802500	-0.131250
-47.031002	-6.405000	1007.049011	2.428125	5.613125	-0.109375
-53.192001	-18.544001	1012.783020	-2.336250	4.633125	-1.067500
-63.806000	-7.747000	998.509033	-4.760000	-0.511875	-2.581250
-62.952000	-25.802999	1034.255005	-8.863750	0.822500	-2.520000
-62.098000	-42.821999	1017.419006	-0.083125	1.378125	-1.960000
-59.902000	-32.452000	1005.523987	0.113750	1.089375	-1.225000
-60.268002	-37.453999	1004.182007	-0.424375	0.752500	-1.233750
-40.564999	-36.844002	1016.869995	3.661875	-0.437500	-2.598750
-46.360001	-31.537001	1012.783020	1.666875	-2.078125	-4.637500
-54.839001	-34.038002	1013.148987	1.505000	-1.050000	-2.336250
-68.685997	-11.529000	1017.723999	5.070625	-2.100000	-1.141875
-59.292000	2.379000	1021.505981	6.374375	-5.464375	-0.940625
-45.811001	-10.309000	1040.964966	-2.695000	0.848750	-0.301875
-45.506001	-15.372000	1007.293030	-2.275000	2.629375	-0.879375
-32.635002	-10.248000	1017.723999	0.030625	1.093750	0.293125
-44.103001	-13.786000	998.692017	5.556250	-0.105000	1.505000
-44.896000	-2.684000	1020.835022	7.988750	-3.500000	1.933750
-47.640999	-6.588000	1013.880981	1.478750	0.323750	1.085000
-45.688999	-5.795000	1004.487000	-2.690625	1.417500	-0.140000
-46.237999	-7.259000	1023.335999	-2.699375	0.853125	-0.161875
-44.774002	-2.257000	1016.138000	-0.385000	0.892500	1.496250
-50.691002	-12.932000	1009.733032	1.115625	-0.385000	1.855000
-51.240002	-10.126000	1020.103027	-1.496250	-0.087500	0.599375
-45.383999	-6.222000	1027.545044	-3.255000	0.446250	-0.656250
-45.383999	-4.636000	1015.040039	-2.336250	0.166250	-1.478750
-44.896000	4.087000	1016.565002	-0.017500	-1.106875	-1.308125
-42.821999	-5.490000	1001.132019	-1.522500	1.723750	-1.006250
-42.700001	-8.479000	1017.053040	-0.761250	0.087500	-0.914375
-50.386002	-7.625000	1011.075012	0.551250	1.452500	-1.185625
-48.556000	-17.446001	1020.835022	2.065000	-0.398125	-1.242500
-42.761002	-6.466000	1017.785034	3.845625	-1.198750	-1.461250
-45.506001	5.368000	1031.631958	6.606250	-2.537500	-1.916250
-43.675999	-4.209000	1012.356018	-0.866250	2.756250	-1.505000
-42.577999	-5.246000	1011.075012	-2.235625	2.821875	-1.806875
-46.116001	-10.126000	1008.695984	-1.841875	1.566250	-1.255625
-42.334000	-7.686000	1020.652039	-1.465625	1.925000	-0.503125
-45.262001	-5.917000	1011.746033	0.205625	-0.148750	-0.621250
-45.506001	-4.819000	1020.225037	-0.595000	-1.273125	-0.686875
-47.336002	-4.331000	1024.006958	-3.758125	1.356250	-1.260000
-48.556000	-3.904000	1015.893982	-4.983125	-0.231875	-4.353125
-40.809002	-14.152000	1034.560059	-11.051250	2.690625	-4.983125
-42.212002	-11.346000	994.117004	-2.060625	1.273125	-3.486875
-35.075001	-11.163000	1013.454041	3.950625	-2.926875	-1.378125
-32.818001	-13.542000	1014.064026	1.614375	1.019375	0.665000
-45.872002	-15.006001	1018.395020	3.788750	-1.225000	-0.730625
-47.336002	-8.296000	1018.028992	-0.857500	3.898125	-1.216250
-45.993999	-5.795000	1016.504028	0.923125	2.528750	-0.774375
-46.116001	-16.775000	1008.452026	5.114375	0.621250	1.080625
-45.628002	-8.662000	993.934021	4.628750	-0.179375	2.769375
-42.944000	-21.594000	1011.867981	5.254375	-3.250625	2.336250
-53.741001	-8.174000	1020.835022	3.062500	-2.463125	0.564375
-47.580002	5.429000	1039.256958	-0.953750	0.035000	0.398125
-43.554001	5.002000	1030.107056	-1.378125	0.721875	1.277500
-39.040001	-0.122000	1007.354004	0.896875	1.946875	1.658125
-45.872002	9.272000	1005.402039	-2.485000	2.288125	0.192500
-48.556000	7.381000	1009.855042	-3.600625	1.159375	-0.656250
-54.046001	-6.100000	1030.838989	-2.047500	-0.892500	-1.351875
-49.348999	-12.505000	1031.204956	-3.491250	2.620625	-1.211875
-47.580002	-16.592001	1018.333984	0.630000	1.015000	-0.573125
-49.288002	-6.710000	992.958008	2.909375	1.938125	0.494375
-48.434002	-1.037000	988.139038	4.414375	-0.525000	1.990625
-33.367001	7.625000	994.239014	1.006250	-6.037500	2.445625
-33.916000	-4.087000	1053.469971	3.294375	-0.665000	0.660625
-39.284000	8.052000	1028.765015	-8.334375	1.330000	0.437500
-38.552002	1.830000	1028.276978	-0.140000	2.480625	-0.323750
-43.431999	13.603000	1005.341003	5.280625	7.293125	0.984375
-37.149002	14.152000	1015.283997	2.047500	-0.721875	1.789375
-42.212002	-3.050000	1018.700012	0.516250	-0.861875	1.478750
-41.907001	-5.429000	1027.422974	-2.393125	-1.920625	0.472500
-51.056999	3.233000	1005.890015	0.332500	7.236250	-1.085000
-50.386002	2.867000	1001.376038	-1.693125	-1.837500	-1.290625
-42.456001	13.359000	1024.983032	-0.262500	1.001875	-0.796250
-46.786999	7.442000	1014.247009	3.123750	0.096250	-0.061250
-49.166000	20.679001	1020.164001	4.493125	-1.277500	0.831250
-51.484001	8.296000	1004.426025	0.201250	2.887500	0.310625
-42.944000	13.115000	1047.125977	-3.727500	0.061250	-1.701875
-49.837002	6.344000	1011.014038	-2.419375	5.433750	-1.688750
-45.079002	6.405000	998.570007	-0.892500	2.314375	-0.306250
-44.042000	0.793000	1005.158020	2.730000	-1.378125	0.004375
-46.177002	0.366000	1023.335999	-0.525000	0.056875	0.126875
-44.103001	7.686000	1012.783020	-3.005625	2.078125	0.358750
-43.675999	-3.050000	1013.210022	-1.343125	-0.446250	0.647500
-44.529999	11.285000	1010.038025	-0.914375	-0.166250	0.371875
-45.201000	5.856000	1011.989990	2.091250	-0.113750	1.128750
-54.046001	5.124000	1003.510986	6.496875	-0.105000	0.017500
-43.310001	6.649000	1018.944031	1.662500	-1.500625	0.988750
-52.887001	7.808000	1019.187988	2.874375	-1.627500	1.518125
-48.983002	11.834001	1044.625000	3.640000	-0.590625	-0.148750
-50.325001	26.352001	1027.728027	-0.341250	3.346875	-1.798125
-63.806000	8.601000	1024.739014	-1.041250	4.882500	-4.077500
-50.386002	22.143000	1012.294983	-0.910000	8.028125	-2.196250
-62.281002	14.152000	997.960022	-0.319375	4.808125	2.266250
-54.107002	9.516000	1002.291016	4.466875	2.550625	3.928750
-54.167999	13.359000	997.838013	2.506875	1.102500	2.992500
-52.826000	21.472000	1001.010010	0.455000	1.172500	0.389375
-58.072002	21.472000	1007.720032	-2.655625	0.455000	-1.338750
-58.011002	36.722000	1029.436035	1.671250	-1.290625	-0.188125
-60.878002	29.402000	1005.523987	4.405625	-0.861875	2.896250
-51.605999	23.607000	1032.852051	-1.115625	-1.688750	5.499375
-51.300999	11.712000	1020.713013	0.713125	-0.551250	4.453750
-59.963001	22.143000	1011.319031	0.437500	-0.240625	-0.135625
-53.008999	30.622000	1012.600037	-3.871875	1.015000	-3.705625
-62.037003	20.923000	1031.875977	-9.296875	3.241875	-3.408125
-56.730000	-1.098000	1014.552002	-8.260000	4.186875	-0.529375
-59.170002	9.577000	1024.250977	-0.052500	4.690000	2.620625
-76.372002	29.280001	1014.491028	7.406875	-0.420000	2.664375
-71.675003	37.514999	1007.781006	5.757500	-1.474375	1.426250
-67.709999	27.816000	1018.028992	0.065625	-3.185000	0.065625
-42.639000	26.352001	1028.032959	-4.633125	0.166250	-1.001875
-48.678001	-1.769000	997.106018	-7.017500	4.585000	-1.955625
-52.582001	-1.891000	978.379028	0.148750	-0.809375	-3.097500
-59.779999	7.259000	1016.320984	2.769375	-5.656875	-1.955625
-49.837002	18.300001	1040.598999	5.823125	-4.348750	-0.953750
-49.532001	23.546000	1036.695068	8.273125	-0.481250	-0.695625
-48.494999	25.559000	1022.238037	3.294375	2.804375	-1.382500
-47.702000	39.833000	1027.301025	2.121875	3.294375	-2.222500
-59.658001	34.647999	1016.869995	2.008125	3.049375	-3.198125
-56.242001	51.484001	980.392029	4.650625	2.935625	-2.047500
-60.024002	47.275002	1006.072998	-3.521875	-0.686875	0.647500
-58.316002	43.920002	1015.283997	-2.196250	0.901250	1.505000
-59.841000	43.859001	1031.510010	4.173750	-1.509375	-0.214375
-66.001999	38.857002	1007.354004	0.503125	0.297500	-0.997500
-50.447002	27.084000	1003.632996	-2.511250	1.986250	-1.159375
-64.416000	24.705000	993.018982	-4.978750	0.840000	-2.511250
-69.479004	18.177999	1009.976990	-1.483125	-4.589375	-1.977500
-52.216000	33.244999	1031.265991	5.967500	-4.287500	-0.848750
-46.116001	30.012001	1022.481995	1.981875	1.505000	-0.210000
-39.955002	38.491001	1034.499023	0.638750	0.319375	-2.362500
-52.887001	50.630001	1028.520996	-7.835625	1.828750	-3.128125
-52.582001	27.389000	1040.721069	-10.858750	4.672500	-0.993125
-55.265999	20.862000	1002.046997	-5.700625	6.081250	-0.056875
-56.181000	12.322001	1002.718018	3.097500	0.078750	0.262500
-51.240002	-2.013000	989.054016	-0.988750	0.433125	2.830625
-45.018002	12.261000	980.697021	5.289375	-2.926875	0.017500
-38.917999	40.260002	1017.174988	4.103750	-5.241250	-4.926250
-36.173000	56.181000	1031.448975	-4.186875	-5.241250	-6.908125
-62.952000	37.149002	1030.961060	-11.808125	1.846250	-2.913750
-56.303001	6.710000	1026.081055	-5.175625	1.198750	2.983750
-48.007000	6.771000	1031.388062	2.401875	0.822500	3.587500
-57.218002	39.955002	1007.720032	0.030625	1.859375	-0.275625
-51.545002	25.010000	993.080017	-8.426250	-1.929375	-6.278125
-33.306000	-3.782000	1066.401978	-14.962500	-1.990625	-6.903750
-40.564999	-34.831001	1013.515015	-6.597500	7.546875	-0.861875
-55.327000	-15.555000	998.325989	3.290000	3.360000	0.975625
-56.119999	18.910000	993.690002	11.423125	-7.083125	-1.395625
-34.587002	23.058001	1036.024048	1.754375	-5.123125	-2.139375
-38.857002	-12.566000	1033.583984	-10.675000	4.646250	-1.050000
-56.364002	-39.345001	1002.535034	-5.569375	4.895625	-0.581875
-58.072002	-33.062000	996.496033	-2.060625	0.564375	1.041250
-45.018002	-8.479000	1026.264038	7.389375	-5.385625	0.393750
-36.173000	18.605000	1021.018005	9.366875	-1.990625	0.385000
-50.202999	25.864000	1028.582031	5.744375	2.345000	-0.301875
-50.386002	24.461000	1024.677979	-0.783125	-2.489375	-1.583750
-40.077000	11.834001	1052.128052	-4.213125	-0.056875	-3.005625
-41.236000	-0.610000	1004.121033	-2.590000	4.935000	-2.012500
-35.380001	-4.026000	999.606995	-3.723125	4.226250	-0.700000
-44.042000	-5.856000	997.289001	-4.606875	1.999375	1.548750
-51.118000	-14.518001	1022.481995	-0.730625	-1.242500	2.056250
-47.091999	-0.671000	1024.983032	-0.328125	0.844375	1.693125
-59.658001	13.481000	997.838013	3.959375	-0.883750	0.424375
-58.499001	15.860001	1005.707031	-2.183125	0.341250	1.841875
-53.924000	-1.342000	1039.500977	0.765625	-2.226875	2.126250
-48.922001	-3.477000	1040.294067	2.305625	-0.052500	3.469375
-42.456001	-0.549000	1022.481995	1.190000	3.045000	1.452500
-33.733002	14.457000	1004.975037	-0.625625	3.123750	-2.966250
-44.529999	12.261000	1019.187988	-4.081875	1.439375	-3.276875
-53.192001	-0.488000	1021.140015	-2.008125	3.154375	-0.975625
-56.973999	-11.224000	1018.151001	1.242500	1.592500	1.653750
-50.630001	-10.980000	1026.751953	1.658125	2.629375	1.750000
-43.859001	5.429000	1012.539001	1.872500	4.191250	0.625625
-54.716999	8.174000	1004.914001	0.126875	2.117500	0.188125
-51.667000	4.331000	1010.343018	-3.141250	3.622500	0.455000
-57.401001	1.952000	1008.452026	-0.385000	1.045625	0.371875
-56.791000	-0.305000	1004.426025	-3.066875	1.290625	1.128750
-65.148003	-7.686000	1020.895996	-3.246250	-2.839375	-0.175000
-51.972000	-4.575000	1006.500000	4.668125	-2.253125	-2.686250
-58.804001	-1.952000	1003.328003	9.003750	-5.166875	-4.738125
-40.687000	24.156000	1026.324951	10.325000	-6.059375	-2.703750
-53.985001	36.844002	1054.140991	1.776250	-0.958125	3.246250
-58.681999	12.688000	1027.666992	-2.760625	5.057500	3.950625
-65.148003	23.363001	1004.548035	-3.101875	3.530625	1.903125
-46.116001	10.675000	1016.260010	-6.619375	0.927500	1.264375
-46.786999	17.873001	1035.536011	-6.085625	2.471875	1.474375
-50.264000	8.540000	1024.800049	-5.884375	7.923125	2.603125
-74.481003	-0.610000	989.968994	-1.474375	8.290625	2.279375
-77.897003	-5.612000	989.786011	1.071875	2.778125	-0.249375
-65.209000	4.941000	1009.855042	0.183750	-3.443125	-2.375625
-57.827999	-0.244000	1028.216064	1.728125	-0.686875	-1.636250
-65.758003	13.847000	1018.944031	2.078125	0.179375	1.513750
-62.341999	7.503000	1031.754028	0.638750	1.820000	2.498125
-57.096001	13.664001	1003.267029	-1.920625	3.526250	-0.153125
-56.486000	-0.976000	1004.975037	1.478750	-0.516250	-2.686250
-59.535999	16.226000	1011.135986	0.651875	-0.533750	-2.467500
-61.366001	6.832000	1015.710999	0.446250	-0.896875	-1.054375
-62.525002	-0.122000	1021.872009	3.963750	-1.793750	-1.640625
-60.389999	14.396000	1021.140015	2.095625	1.229375	-1.491875
-56.364002	6.344000	1025.837036	-1.124375	1.098125	-1.540000
-59.292000	5.734000	1010.770020	-2.270625	2.051875	-0.179375
-63.623001	2.684000	1013.027039	-0.660625	0.560000	0.262500
-58.011002	2.318000	1017.968018	1.133125	-0.170625	1.006250
-54.778000	11.468000	1018.882996	-0.201250	1.286250	1.246875
-59.414001	9.516000	1016.931030	-2.126250	0.525000	0.336875
-69.479004	12.078000	1018.028992	-1.973125	0.844375	1.159375
-59.353001	12.444000	1026.751953	-1.903125	2.065000	2.765000
-63.989002	21.350000	1025.531982	0.940625	1.089375	2.340625
-64.538002	16.531000	1005.463013	5.744375	1.378125	0.984375
-63.318001	15.372000	1019.919983	2.178750	0.380625	1.229375
-62.281002	6.954000	1019.919983	-4.515000	2.935625	-0.061250
-68.685997	-2.928000	1029.984985	-6.781250	2.699375	-0.393750
-81.862000	-3.355000	1062.681030	-11.191250	3.648750	-2.060625
-72.101997	-3.538000	1019.249023	-14.332500	10.535000	0.017500
-54.778000	-35.501999	977.342041	-7.245000	3.430000	4.808125
-51.423000	-20.557001	981.489990	-2.415000	4.143125	6.103125
-57.462002	-13.908000	1003.510986	2.905000	-3.080000	4.156250
-74.359001	-4.453000	1000.949036	12.788125	-1.946875	0.039375
-89.181999	18.483000	996.496033	7.984375	-2.388750	-1.373750
-76.250000	15.982000	1039.623047	2.419375	-5.267500	1.343125
-80.153999	9.150001	1038.646973	7.577500	1.163750	4.226250
-67.344002	4.148000	1010.708984	6.400625	2.003750	3.434375
-62.159000	-0.976000	1014.307983	3.561250	-0.021875	0.761250
-64.050003	2.562000	996.862000	-2.992500	2.581250	-0.271250
-71.736000	11.163000	996.130005	-0.188125	-0.144375	-0.161875
-69.600998	18.666000	1026.203003	-0.021875	-2.406250	2.699375
-76.006004	3.965000	1038.342041	1.111250	-1.793750	3.605000
-67.527000	9.699000	1010.403992	-1.417500	1.168125	0.000000
-65.758003	15.677000	1011.502014	-5.320000	0.988750	-1.653750
-67.099998	2.318000	1008.879028	-2.725625	1.640625	-2.213750
-87.168999	10.797000	1016.138000	-0.879375	2.240000	-1.452500
-76.189003	16.592001	1008.513000	-4.528125	-0.630000	-0.958125
-65.879997	-0.183000	1029.619019	-4.081875	-5.206250	-2.664375
-61.487999	3.111000	1013.575989	-3.508750	-6.461875	-1.443750
-40.015999	-9.821000	1007.720032	-5.228125	-12.201875	0.459375
-45.750000	-17.446001	1001.864014	0.280000	-6.619375	1.540000
-43.859001	-8.479000	1018.455994	1.430625	-4.427500	0.293125
-41.053001	-0.732000	1019.371033	2.436875	-2.143750	-2.091250
-38.307999	6.100000	1020.346985	0.914375	-2.511250	-2.747500
-40.625999	4.453000	1021.140015	-3.893750	-1.085000	-1.951250
-34.465000	2.623000	1019.554016	-3.215625	0.791875	-0.581875
-30.743999	-9.150001	1020.895996	-3.084375	-0.647500	-0.901250
-31.232000	-11.041000	1024.067993	-2.423750	1.876875	-1.806875
-33.672001	-10.797000	1015.833008	-2.550625	0.686875	-1.238125
-29.646000	-19.825001	1010.708984	-2.471875	0.870625	-0.389375
-30.866001	-21.594000	1006.622009	-0.713125	1.198750	0.118125
-35.685001	-19.032000	1019.859009	0.590625	-0.608125	0.223125
-24.217001	-11.895000	1016.138000	0.157500	-0.328125	-0.078750
-25.132000	-8.296000	1019.127014	-1.824375	-0.258125	-0.153125
-27.267000	-9.577000	1018.028992	0.844375	-0.341250	-1.111250
-30.866001	-12.200000	1020.530029	0.962500	0.511875	-1.684375
-32.695999	-4.819000	1009.062012	-0.266875	0.835625	-1.741250
-28.365000	-13.115000	1022.665039	-1.951250	0.603750	-1.785000
-29.036001	-13.115000	1027.849976	-2.323125	1.032500	-1.579375
-31.293001	-18.422001	1003.023010	-2.135000	2.209375	-0.770000
-42.577999	-22.814001	1004.242981	0.328125	0.682500	0.411250
-29.402000	-27.816000	1028.155029	1.828750	-1.347500	0.883750
-26.962000	-24.156000	1016.626038	0.905625	0.975625	-0.630000
-33.793999	-9.943000	1013.270996	-1.395625	0.805000	-1.973125
-35.868000	-13.054000	1029.497070	-2.546250	0.188125	-2.471875
-33.428001	-8.540000	1020.895996	-2.813125	1.706250	-1.553125
-32.452000	-16.226000	1021.018005	0.568750	1.907500	-0.105000
-33.062000	-26.352001	1021.994019	2.576875	-0.061250	-0.236250
-40.077000	-19.398001	1009.549988	2.900625	1.833125	-0.253750
-34.342999	-16.348000	1021.018005	0.761250	-0.638750	-1.058750
-37.514999	-10.736000	1007.415039	0.105000	1.023750	-1.260000
-26.840000	-11.468000	1019.249023	-3.762500	1.290625	-0.927500
-29.158001	-22.448000	1022.359985	-1.365000	1.474375	-0.673750
-35.746002	-11.041000	1018.212036	1.785000	-0.013125	0.161875
-36.600002	-13.786000	1011.867981	2.432500	-0.170625	0.739375
-32.635002	-8.296000	1007.842041	2.261875	-0.205625	0.035000
-30.500000	-9.394000	1014.307983	0.249375	1.400000	-0.476875
-30.256001	-6.771000	1017.846008	-0.905625	0.608125	-0.879375
-32.330002	-10.004000	1023.580017	-1.907500	1.260000	-0.595000
-37.942001	-19.032000	1017.296997	-0.748125	0.805000	-0.371875
-37.209999	-10.553000	1011.197021	1.868125	0.013125	-0.087500
-38.491001	-12.993000	1017.601990	0.748125	0.131250	-0.433125
-36.904999	-18.177999	1015.283997	-1.491875	-0.376250	-1.308125
-30.622000	-3.965000	1020.835022	-0.756875	-0.013125	-0.735000
-36.234001	-8.052000	1012.173035	1.360625	0.266875	-0.070000
-37.088001	-8.540000	1024.312012	1.028125	-0.074375	1.141875
-34.342999	-2.989000	1027.605957	1.286250	1.513750	0.721875
-33.306000	-3.599000	1013.759033	0.761250	2.213750	-0.161875
-34.892002	-4.514000	1013.575989	-1.400000	2.288125	-0.021875
-31.903000	-7.686000	1016.199036	1.137500	1.623125	0.170625
-32.208000	-3.965000	1017.358032	1.299375	1.330000	1.155000
-35.257999	-7.564000	1015.893982	-0.656250	1.395625	0.739375
-29.097000	-10.309000	1018.333984	0.529375	1.666875	-0.700000
-32.818001	-7.564000	1017.053040	0.936250	-0.258125	-0.717500
-33.916000	2.074000	1019.737000	-0.262500	1.207500	0.087500
-30.195000	-1.281000	1013.515015	-0.783125	0.424375	-0.258125
-31.964001	-8.479000	1010.708984	-1.225000	0.560000	-0.315000
-31.842001	-5.612000	1016.809021	-3.154375	-0.573125	-0.476875
-32.025002	-10.614000	1020.591003	-1.408750	-0.236250	-0.809375
-43.675999	0.549000	1015.528015	3.027500	-1.421875	-1.312500
-38.917999	-6.710000	1023.824036	-1.662500	1.220625	-0.463750
-33.549999	-0.427000	1025.898071	-1.032500	0.945000	-0.546875
-39.771999	-7.930000	1014.856995	0.183750	1.868125	-0.717500
-39.528000	-13.603000	1014.247009	-0.249375	1.268750	-0.021875
-29.097000	-1.769000	1018.273010	0.975625	0.280000	0.301875
-38.796001	-7.686000	1016.992004	0.201250	1.321250	0.774375
-36.539001	-4.026000	1016.869995	1.697500	0.288750	-0.087500
-39.284000	-9.028000	1013.210022	-0.433125	-0.345625	-0.700000
-35.257999	-5.978000	1023.153015	0.643125	-0.196875	-1.465625
-34.647999	-4.270000	1008.695984	-2.690625	2.953125	-0.818125
-30.561001	-10.858000	1018.333984	-2.563750	1.509375	-0.258125
-36.966000	-9.455000	1010.403992	-1.277500	0.813750	-0.113750
-36.966000	-13.664001	1021.140015	-4.025000	2.148125	0.288750
-45.201000	-21.106001	992.713989	-1.268750	1.063125	-0.953750
-32.818001	-21.899000	1024.373047	-1.448125	-2.668750	-2.051875
-29.341000	-11.163000	1032.791016	-1.505000	-0.148750	-0.288750
-31.598000	-9.699000	1044.259033	1.868125	0.879375	1.093750
-38.430000	0.427000	997.106018	-0.542500	3.539375	2.117500
-40.748001	-10.370000	995.764038	-2.393125	-0.179375	1.701875
-34.831001	-8.784000	1010.708984	-0.603750	-1.303750	-0.074375
-37.758999	-2.989000	1011.135986	1.220625	-1.693125	-1.496250
-38.796001	2.013000	1019.492981	1.487500	-3.819375	-0.997500
-24.156000	-9.760000	1023.518982	5.140625	-2.957500	-0.341250
-28.548000	-19.276001	1027.239990	0.581875	-0.879375	0.253750
-31.415001	-19.764000	1043.893066	-0.980000	-0.153125	-0.612500
-29.158001	-18.422001	1014.918030	-2.852500	2.603125	-1.776250
-33.672001	-25.864000	1015.345032	-6.531875	2.095625	-1.793750
-23.851000	-12.749001	1011.562988	-1.881250	0.153125	-2.537500
-30.988001	-11.102000	1022.359985	2.156875	-0.743750	-0.525000
-24.888000	-2.318000	1026.203003	1.102500	0.179375	1.942500
-29.402000	-16.104000	1012.721985	1.553125	-0.538125	0.616875
-24.461000	-9.150001	1020.164001	-1.964375	0.927500	-1.929375
-34.403999	-6.893000	1014.186035	-1.662500	1.697500	-3.080000
-39.650002	-3.111000	1020.895996	0.616875	0.875000	-0.223125
-35.990002	-15.799000	1023.275024	2.506875	2.231250	1.732500
-36.844002	-19.032000	1000.095032	2.240000	0.157500	0.866250
-39.040001	-16.226000	1022.177002	-1.098125	-0.673750	-1.133125
-29.951000	-7.381000	1030.717041	-2.310000	4.318125	-1.421875
-35.075001	-7.808000	1009.549988	-1.076250	3.430000	-0.621250
-41.723999	-15.860001	1024.739014	-1.216250	1.085000	-0.866250
-41.785000	-19.153999	1025.837036	-1.295000	4.453750	-0.192500
-37.698002	-14.945000	1003.755005	2.235625	2.756250	-0.087500
-33.672001	-18.666000	1001.864014	-0.818125	1.155000	-0.936250
-32.695999	-23.302000	1007.536987	-5.005000	2.296875	-1.286250
-24.521999	-57.035000	1059.203979	0.183750	0.638750	-3.692500
-43.675999	-21.228001	1019.309998	0.280000	2.091250	-3.036250
-40.564999	-7.564000	994.421997	2.275000	0.529375	-0.306250
-24.461000	-15.189000	1013.393005	4.633125	-0.341250	2.861250
-31.720001	-14.579000	1000.156006	4.370625	0.708750	3.080000
-30.683001	-7.747000	1037.915039	0.883750	-3.119375	1.658125
-39.650002	-5.368000	1024.373047	-1.863750	2.209375	0.918750
-43.493000	-3.355000	1003.694031	-3.001250	2.152500	0.433125
-39.406002	-3.233000	1027.849976	-1.439375	0.385000	1.312500
-37.942001	-12.688000	1040.537964	-0.144375	3.036250	1.001875
-46.421001	-9.272000	1022.359985	-1.067500	2.231250	-0.612500
-47.945999	-10.614000	1020.164001	-2.025625	2.576875	-0.735000
-42.334000	-7.076000	1002.901001	-2.336250	5.788125	1.373750
-46.360001	-17.141001	1008.757019	1.295000	0.787500	2.318750
-52.521000	-6.771000	1005.280029	3.145625	2.458750	1.933750
-44.225002	-30.805000	1019.432007	0.923125	2.156875	1.942500
-25.071001	-37.758999	1009.855042	0.293125	1.531250	-0.511875
-27.816000	-17.385000	972.645020	-4.576250	0.647500	-1.859375
-29.158001	-17.629000	1026.447021	-4.326875	-5.302500	0.555625
-52.764999	-17.750999	1035.841064	2.961875	-2.121875	3.320625
-61.610001	7.625000	998.447998	0.896875	0.398125	4.300625
-49.837002	33.977001	1011.929016	9.555000	-4.156250	4.431875
-52.033001	35.868000	1049.749023	14.949375	-3.928750	2.931250
-70.760002	12.749001	1016.442993	7.472500	3.010000	-0.306250
-61.243999	14.701000	999.606995	-0.879375	3.355625	-0.892500
-53.497002	-1.769000	978.744995	-4.007500	6.173125	-2.900625
-56.059002	-7.381000	1001.010010	0.240625	-0.262500	-5.184375
-43.493000	12.871000	1034.864990	3.626875	-4.195625	-0.883750
-64.050003	-13.115000	1014.002991	-3.508750	2.126250	5.674375
-49.897999	-13.542000	979.233032	-4.414375	1.220625	4.095000
-49.897999	-11.773000	1025.593018	5.652500	-6.313125	-1.522500
-36.050999	35.319000	1017.114014	9.371250	-2.275000	-1.408750
-42.882999	45.445000	1032.729980	-0.061250	-0.630000	1.894375
-48.678001	31.598000	1020.652039	-4.816875	3.154375	1.614375
-57.218002	11.285000	1013.942017	-5.022500	5.429375	1.785000
-45.323002	-15.982000	1036.145996	-7.595000	4.506250	2.585625
-46.482002	-13.725000	1027.911011	-7.280000	5.766250	-0.074375
-58.132999	5.734000	1009.122986	-6.877500	4.291875	0.179375
-56.730000	-2.623000	1019.127014	2.541875	0.910000	0.980000
-49.653999	-13.054000	1037.305054	5.604375	-1.356250	3.386250
-54.229000	-19.398001	1041.758057	3.259375	2.056250	4.029375
-63.684002	-1.281000	1005.036011	6.505625	2.883125	1.815625
-63.806000	28.914000	1003.510986	6.825000	1.308125	-0.126875
-58.681999	59.475002	996.374023	1.605625	6.002500	-2.511250
-57.645000	50.691002	999.729004	0.634375	6.986875	-2.616250
-63.928001	30.683001	1020.103027	-3.990000	0.393750	-2.655625
-58.621002	-11.407001	1026.203003	-3.145625	1.382500	-3.088750
-68.137001	-27.877001	1011.502014	-1.977500	3.202500	-1.150625
-74.237000	-7.015000	994.544006	-3.145625	0.083125	2.660000
-74.481003	10.492001	1010.770020	-2.878750	0.280000	2.651250
-74.664001	5.185000	1020.103027	-2.292500	0.420000	1.015000
-73.383003	1.830000	1021.932983	-1.894375	0.971250	-2.222500
-72.406998	6.222000	1011.989990	-3.845625	1.736875	-4.029375
-63.013000	11.590000	1012.843994	-4.357500	0.363125	-3.955000
-71.003998	14.701000	1014.002991	-2.152500	1.111250	-2.406250
-69.295998	-1.403000	1014.552002	-2.633750	-0.546875	-0.918750
-71.736000	-14.579000	1023.640991	-0.603750	0.638750	-1.907500
-74.176003	-22.204000	1017.663025	1.124375	1.045625	-2.143750
-72.346001	-9.394000	1023.518982	-1.185625	1.098125	-1.404375
-68.259003	-14.823000	1020.041992	-0.266875	0.988750	-0.918750
-59.841000	-12.139000	1018.760986	1.058750	0.275625	-1.373750
-56.303001	0.183000	1003.450012	0.131250	0.056875	-1.951250
-59.475002	4.026000	1008.817993	-0.700000	-0.109375	-1.080625
-58.438000	-4.087000	1022.481995	-1.373750	-0.984375	0.336875
-69.174004	-7.137000	1019.919983	0.966875	0.673750	-0.678125
-67.344002	-11.102000	1023.275024	-1.273125	0.975625	-1.058750
-63.806000	-11.956000	1020.835022	-0.170625	0.498750	-0.783125
-65.270004	-7.564000	1017.723999	0.752500	-0.166250	0.240625
-69.052002	-14.701000	1007.842041	1.400000	0.380625	1.150625
-69.112999	-7.442000	1014.491028	1.408750	-1.211875	0.424375
-55.144001	-10.431000	1022.421021	-0.669375	0.017500	-0.336875
-62.708000	-5.978000	1017.846008	-2.323125	-0.665000	-0.848750
-65.270004	4.026000	1015.101013	-0.560000	-0.380625	-0.931875
-61.549000	5.246000	1019.676025	-1.435000	0.389375	-0.542500
-65.514000	-6.710000	1013.210022	-0.603750	0.205625	-0.293125
-59.170002	-5.002000	1012.600037	-0.446250	-0.166250	-0.638750
-51.300999	-6.283000	1018.700012	-1.106875	-0.433125	-1.561875
-58.681999	-20.557001	1015.283997	0.866250	-0.109375	-2.043125
-62.341999	-25.864000	1021.384033	-4.108125	0.420000	-2.205000
-71.370003	-24.583000	1031.144043	-4.038125	1.076250	-2.874375
-60.817001	-7.381000	1026.995972	-1.413125	-0.328125	-3.241875
-69.357002	0.122000	1026.141968	6.090000	-0.595000	-0.319375
-45.688999	2.196000	1013.697998	10.031875	-1.566250	2.428125
-45.445000	1.830000	999.546021	6.111875	-3.036250	2.205000
-50.751999	-2.684000	1015.161987	0.166250	-0.061250	-0.840000
-60.146000	10.065001	1014.307983	-5.285000	0.437500	-4.921875
-58.316002	14.030000	1022.970032	-7.647500	1.211875	-4.261250
-55.144001	1.952000	1019.676025	-1.566250	1.404375	-2.174375
-62.708000	-3.111000	1024.556030	-0.796250	0.061250	0.796250
-64.598999	-22.570000	1021.262024	-1.137500	1.575000	0.398125
-66.856003	-25.986000	1005.645996	-1.058750	2.559375	-0.931875
-58.316002	-12.627000	1022.054993	-0.013125	0.039375	-1.925000
-61.732002	6.100000	1025.776001	1.631875	0.892500	-1.557500
-59.779999	10.492001	1014.674011	0.262500	2.170000	-0.857500
-66.489998	-9.943000	1017.236023	-0.266875	2.257500	-0.739375
-62.464001	-4.026000	1009.306030	-1.986250	1.378125	-1.076250
-57.522999	-13.298000	1017.968018	-2.891875	2.813125	-0.765625
-55.998001	-12.932000	1021.872009	0.109375	1.837500	-0.262500
-64.660004	-15.738000	1011.014038	-0.704375	1.015000	0.546875
-63.623001	-18.849001	1009.733032	0.498750	-1.316875	2.187500
-65.026001	-6.039000	1014.307983	1.754375	-0.953750	2.270625
-55.937000	-8.296000	1018.517029	-1.876875	0.236250	0.853125
-56.791000	-0.549000	1017.785034	-3.150000	0.765625	-1.575000
-60.268002	4.087000	1014.064026	-2.878750	0.590625	-2.660000
-59.109001	3.660000	1025.593018	-2.030000	0.319375	-1.111250
-66.612000	0.610000	1021.384033	5.000625	3.071250	0.835625
-66.856003	-5.002000	1019.371033	1.977500	6.387500	1.032500
-62.708000	-22.509001	1015.528015	-4.825625	-0.376250	-0.135625
-68.076004	-13.481000	1010.221008	-0.730625	2.279375	-1.470000
-58.743000	-12.139000	1015.406006	-0.555625	0.131250	-0.345625
-65.879997	-14.518001	1008.452026	-0.774375	0.056875	0.236250
-68.320000	-13.847000	1020.164001	-1.106875	0.179375	-0.113750
-64.660004	-8.235000	1015.528015	2.152500	-0.971250	0.008750
-60.695000	-9.150001	1008.940002	0.581875	0.345625	1.098125
-62.098000	-12.139000	1020.957031	-4.169375	1.181250	1.071875
-66.306999	-12.871000	1025.654053	-0.787500	-0.140000	-0.625625
-67.892998	-11.773000	1012.234009	2.660000	0.070000	-1.369375
-63.440002	0.183000	1004.059998	3.574375	-0.485625	-0.730625
-55.693001	2.501000	1022.299011	2.808750	-1.653750	-0.297500
-59.597000	-1.342000	1019.127014	-1.973125	-1.198750	-0.188125
-60.084999	-8.967000	1007.109985	-6.864375	0.148750	-0.472500
-62.525002	-17.080000	1006.500000	-2.253125	-2.056250	-0.761250
-49.227001	-15.250000	1013.393005	-0.603750	-5.998125	-0.236250
-34.403999	-13.664001	1006.377991	-2.130625	-7.380625	-0.809375
-41.785000	-5.490000	1009.611023	-2.646875	-3.863125	-1.190000
-56.303001	-13.176001	1020.835022	1.526875	-7.214375	-0.988750
-41.114002	-9.516000	1018.455994	1.767500	-1.500625	-0.476875
-25.925001	-19.153999	1006.804993	0.441875	-5.906250	-0.008750
-34.098999	-19.215000	1015.406006	0.721875	-0.669375	-0.560000
-23.241001	-19.886000	1028.765015	0.231875	-0.704375	-0.840000
-31.354000	-10.004000	1012.721985	1.299375	1.640625	-0.756875
-16.714001	-10.004000	1013.637024	-0.490000	-1.159375	-0.638750
-29.951000	-6.039000	1023.580017	-0.638750	-1.330000	-0.358750
-34.282001	-10.736000	1021.811035	0.358750	-2.922500	0.625625
-14.579000	-6.832000	998.265015	-0.669375	-3.233125	0.424375
-26.169001	-14.823000	1011.257996	4.252500	-0.459375	2.240000
-22.326000	-3.599000	1026.264038	9.633750	6.002500	1.758750
-30.500000	-5.673000	1025.227051	3.723125	-0.621250	0.039375
-25.681000	11.346000	1010.830994	-2.751875	-0.113750	-2.463125
-18.117001	-0.854000	1015.161987	-7.892500	-2.988125	-2.607500
-28.548000	-3.172000	1017.663025	-6.431250	-1.938125	-1.658125
-23.058001	-10.492001	1013.088013	-4.624375	-2.065000	-0.188125
-19.093000	-18.483000	1023.335999	-1.680000	2.616250	1.141875
-23.302000	-18.666000	1016.687012	-0.669375	1.623125	1.596875
-18.117001	-14.640000	1014.674011	2.712500	6.453125	0.218750
-34.160000	-18.849001	1013.332031	1.693125	7.433125	-0.258125
-33.123001	-8.967000	1039.440063	4.322500	4.672500	-1.163750
-28.182001	-1.220000	1006.134033	3.740625	2.445625	1.518125
-27.511000	3.721000	1011.746033	-1.916250	-2.012500	1.071875
-32.452000	-9.272000	1014.979004	-4.576250	-1.946875	-0.091875
-23.424000	-7.442000	1016.382019	-5.158125	-2.865625	-0.087500
-22.631001	-7.381000	1023.213989	-2.226875	-0.021875	0.813750
-26.474001	-12.932000	1011.624023	0.262500	-3.688125	0.542500
-24.521999	-13.542000	1018.333984	0.896875	-1.872500	0.122500
-29.158001	-8.479000	1018.760986	-1.929375	-1.452500	-0.411250
-20.007999	-23.241001	1021.262024	-1.605625	-0.848750	0.306250
-17.080000	-21.472000	1012.112000	-0.262500	-2.603125	0.122500
-16.104000	-17.568001	1013.820007	-1.526875	-0.953750	-0.450625
-15.006001	-11.041000	1022.299011	0.743750	-3.342500	-1.557500
-18.726999	-12.749001	1023.885010	-2.231250	-2.327500	-1.010625
-14.335000	-16.409000	1042.978027	-3.150000	1.640625	-0.393750
-11.895000	-22.082001	1013.515015	-4.112500	3.500000	0.013125
-8.723001	-25.010000	1007.658997	-0.783125	2.056250	0.096250
-14.762000	-21.960001	1005.523987	0.651875	1.448125	-0.065625
-17.202000	-18.910000	1024.250977	-0.625625	2.170000	0.214375
-24.461000	-22.326000	1017.480042	-3.473750	2.878750	-0.949375
-21.837999	-34.647999	1026.691040	-4.151875	3.631250	-1.767500
-23.851000	-30.743999	1015.772034	-2.795625	5.538750	-0.157500
-26.291000	-32.818001	988.200012	-0.621250	3.889375	1.605625
-31.598000	-25.925001	1009.855042	1.955625	-1.225000	1.176875
-35.319000	-26.047001	1023.580017	1.741250	0.590625	-1.325625
-28.304001	-26.718000	1029.740967	-4.523750	2.528750	-1.487500
-32.818001	-27.450001	1001.132019	-1.325625	2.931250	-1.540000
-30.378000	-27.450001	1010.953003	1.290625	-0.581875	-0.126875
-26.291000	-26.291000	1016.077026	1.308125	-0.323750	0.643125
-33.062000	-27.816000	1029.130981	1.767500	0.231875	-0.805000
-33.184002	-24.278000	1028.703979	-0.651875	1.745625	-0.805000
-38.186001	-28.792000	1014.429993	-0.590625	1.820000	-0.608125
-31.537001	-28.426001	1011.014038	-0.157500	1.316875	-0.341250
-36.355999	-29.524000	1030.594971	-2.594375	2.016875	0.240625
-35.136002	-39.406002	1011.562988	-1.176875	2.817500	0.813750
-31.842001	-26.535000	1001.986023	0.476875	0.844375	0.870625
-39.161999	-23.118999	1009.549988	0.651875	0.940625	-0.030625
-28.853001	-19.398001	1012.234009	-2.870000	1.321250	0.105000
-33.793999	-28.487000	1017.236023	-1.548750	-0.035000	-0.481250
-32.085999	-32.085999	1009.549988	-0.634375	0.472500	0.389375
-33.306000	-26.535000	1010.770020	2.126250	-1.286250	0.035000
-37.942001	-23.973000	1015.955017	1.338750	-0.682500	-0.455000
-36.722000	-34.526001	1027.728027	-1.771875	0.678125	-0.441875
-28.975000	-28.670000	1020.164001	-1.316875	0.743750	-1.041250
-38.063999	-33.062000	1010.526001	-0.183750	1.238125	-0.507500
-35.380001	-32.818001	1029.984985	-0.367500	0.166250	-0.888125
-36.112000	-37.393002	1031.754028	-0.896875	2.686250	-1.658125
-37.881001	-35.380001	1003.205994	-3.679375	4.453750	-0.931875
-35.257999	-31.964001	996.739990	-1.973125	-1.076250	-0.161875
-24.948999	-33.489002	989.908020	2.856875	-13.982500	1.233750
-15.982000	-22.875000	1017.114014	8.133125	-2.174375	1.036875
-26.596001	-22.875000	1020.225037	-1.785000	-1.911875	0.135625
-24.217001	-19.825001	1024.677979	-2.900625	3.998750	-1.806875
-27.205999	-24.217001	1007.171021	-1.750000	1.435000	-1.382500
-30.012001	-27.999001	1016.809021	2.257500	-0.866250	1.146250
-27.145000	-35.380001	1028.216064	5.040000	-2.944375	0.940625
-28.792000	-28.792000	1019.309998	-0.205625	1.916250	-0.625625
-24.766001	-19.703001	1022.543030	-2.673125	2.935625	-1.382500
-14.396000	-24.400000	1012.478027	1.246875	2.371250	-0.770000
-19.215000	-19.153999	1010.160034	2.073750	1.098125	0.892500
-27.938000	-30.866001	993.445984	0.726250	2.139375	0.332500
-25.010000	-30.743999	1015.772034	-4.283125	1.194375	-1.916250
-30.866001	-25.864000	1012.600037	-1.190000	-1.308125	-1.128750
-29.829000	-24.644001	1026.568970	3.136875	-2.786875	0.109375
-25.071001	-28.731001	1032.608032	-0.980000	-0.914375	0.253750
-19.153999	-24.400000	1024.800049	-0.888125	2.100000	-0.595000
-32.695999	-22.814001	998.204041	-1.295000	1.588125	-0.971250
-27.999001	-26.657000	1013.637024	-0.389375	-0.743750	0.179375
-26.718000	-33.000999	1024.250977	0.651875	0.004375	1.015000
-21.655001	-26.413000	1026.630005	0.927500	1.513750	0.288750
-23.729000	-16.165001	1005.829041	0.227500	2.016875	-0.958125
-17.995001	-19.398001	1007.963989	-1.404375	1.435000	-0.131250
-24.461000	-27.755001	1011.075012	-1.273125	1.614375	0.525000
-17.629000	-22.204000	1016.504028	1.054375	0.332500	0.052500
-30.561001	-17.629000	1002.046997	-0.406875	1.601250	0.109375
-28.304001	-16.226000	1010.221008	0.275625	-1.351875	-1.443750
-18.666000	-15.311000	1039.562012	-0.035000	-2.979375	-2.301250
-25.254000	-24.948999	1016.320984	-3.937500	1.815625	-1.238125
-22.936001	-25.986000	1008.695984	-1.430625	-0.695625	-1.500625
-22.448000	-29.280001	1023.702026	-1.680000	-0.468125	-1.141875
-35.257999	-31.354000	1017.601990	-0.507500	0.643125	0.183750
-25.193001	-31.110001	1024.067993	1.876875	-1.159375	0.538125
-24.948999	-37.088001	1022.238037	1.137500	1.080625	1.334375
-29.524000	-35.563000	1008.757019	0.218750	1.220625	0.651875
-16.531000	-28.609001	1019.249023	-1.680000	-1.286250	0.520625
-23.058001	-22.570000	1010.221008	-0.612500	1.216250	-0.096250
-26.169001	-17.750999	1003.816040	-2.349375	1.837500	-0.901250
-11.407001	-22.936001	1018.882996	-4.388125	-0.533750	-2.576875
-4.209000	-31.842001	1021.018005	-2.388750	0.581875	-4.151875
-13.542000	-32.513000	1017.114014	-2.948750	-0.297500	-3.316250
-33.062000	-32.085999	1017.296997	-3.801875	-1.106875	-2.891875
-36.904999	-37.881001	1038.159058	-8.951250	0.686875	-2.218125
-14.152000	-63.379002	1010.708984	-7.765625	6.098750	-1.251250
-12.688000	-61.061001	999.484985	0.616875	1.750000	-2.773750
-10.919000	-59.048000	989.298035	8.960000	-0.503125	-3.106250
-15.250000	-23.912001	1024.677979	12.066250	0.441875	-4.143125
-28.304001	-33.733002	1023.824036	1.876875	-3.106250	-2.629375
-26.474001	-24.948999	1028.093994	-3.233125	1.526875	-0.345625
-28.792000	-35.746002	1023.458008	-2.607500	2.843750	1.767500
-21.655001	-46.421001	1012.905029	3.845625	0.441875	2.686250
-20.496000	-40.564999	1009.062012	1.531250	1.531250	2.318750
-21.106001	-37.698002	1021.079041	-1.382500	1.229375	1.299375
-28.365000	-38.491001	1021.018005	-0.013125	1.540000	-0.078750
-17.750999	-26.657000	1011.562988	-0.389375	3.465000	1.133125
-27.450001	-20.130001	1015.406006	2.196250	-0.210000	0.848750
-26.108000	-18.971001	1020.346985	0.761250	-0.170625	0.966875
-29.463001	-25.254000	1014.734985	-1.054375	0.013125	0.595000
-27.328001	-28.304001	1019.798035	-0.590625	1.093750	0.586250
-27.450001	-21.899000	1012.294983	-0.135625	0.083125	0.350000
-20.191000	-27.572001	1015.283997	-0.315000	0.319375	0.284375
-24.156000	-30.988001	1027.239990	-0.630000	0.253750	-0.253750
-20.252001	-24.827000	1020.041992	-0.949375	0.708750	0.078750
-25.498001	-32.452000	1010.708984	1.133125	0.336875	-0.288750
-30.012001	-32.330002	1017.480042	-1.290625	0.433125	-0.131250
-19.032000	-32.574001	1026.081055	-2.384375	0.918750	-0.013125
-19.947001	-29.707001	1015.528015	0.363125	0.818125	-0.315000
-23.241001	-29.280001	1010.892029	-2.104375	1.395625	0.490000
-24.095001	-30.927000	1014.429993	2.305625	0.595000	0.065625
-23.302000	-25.864000	1018.700012	1.828750	-0.196875	-0.511875
-22.936001	-27.205999	1018.700012	-1.526875	1.190000	-0.660625
-30.805000	-26.962000	1016.626038	0.651875	0.896875	-1.120000
-22.021000	-30.134001	1010.038025	1.509375	1.111250	-0.498750
-24.156000	-34.038002	1015.283997	-0.126875	0.017500	-0.603750
-21.533001	-33.489002	1018.700012	0.406875	0.835625	-0.840000
-21.228001	-31.110001	1022.359985	-0.927500	-0.826875	-0.341250
-26.108000	-33.672001	1012.478027	1.286250	0.686875	-0.494375
-20.434999	-24.644001	1015.893982	1.583750	-0.673750	-1.019375
-21.045000	-27.572001	1015.101013	-3.110625	1.251250	-0.643125
-26.108000	-21.410999	1034.803955	-0.743750	3.075625	-1.386875
-29.585001	-38.552002	1013.148987	1.421875	10.775625	-0.126875
-45.567001	-29.158001	1004.914001	2.170000	6.575625	-0.017500
-40.625999	-18.361000	1014.429993	3.745000	2.625000	-0.013125
-41.968002	-12.688000	1022.238037	1.505000	-0.463750	-0.188125
-38.063999	-17.446001	1011.746033	-2.506875	-0.599375	0.000000
-38.552002	-18.544001	1014.918030	-1.820000	-2.213750	-1.146250
-33.855000	-22.691999	1005.402039	-2.139375	0.630000	-0.503125
-30.195000	-25.864000	1018.090027	0.647500	-1.881250	0.078750
-29.219000	-30.256001	1006.012024	-0.315000	-1.509375	0.039375
-30.134001	-28.182001	1022.908997	-3.491250	-1.045625	0.271250
-40.625999	-32.695999	1017.968018	0.936250	-0.350000	-0.354375
-36.234001	-24.948999	1014.064026	-0.595000	-0.678125	0.428750
-30.256001	-32.818001	1026.020020	-1.133125	-0.008750	0.350000
-31.232000	-24.034000	1022.604004	-0.385000	1.168125	0.122500
-30.012001	-24.888000	1007.720032	-0.743750	1.885625	0.507500
-31.232000	-18.849001	1012.478027	1.846250	0.463750	0.192500
-24.766001	-23.546000	1025.837036	1.601250	0.498750	0.577500
-32.939999	-30.866001	1017.236023	0.673750	0.844375	0.656250
-32.208000	-27.084000	1022.604004	-0.997500	1.671250	0.056875
-27.938000	-28.670000	1007.842041	-1.583750	1.347500	-0.280000
-31.232000	-26.962000	1018.517029	-0.319375	0.021875	-0.402500
-30.195000	-23.973000	1014.002991	0.949375	-0.406875	0.100625
-32.452000	-24.644001	1021.140015	-1.316875	0.538125	1.207500
-35.136002	-27.938000	1015.893982	1.815625	0.713125	0.546875
-25.437000	-19.825001	1019.919983	-0.183750	-0.297500	0.065625
-29.280001	-22.814001	1016.626038	-1.723750	2.751875	-0.017500
-39.345001	-18.177999	1018.395020	1.404375	0.778750	-0.284375
-30.500000	-18.300001	1017.236023	0.813750	0.402500	0.485625
-33.672001	-17.019001	1011.989990	1.382500	2.371250	0.424375
-31.476000	-22.143000	1011.319031	0.669375	1.028125	-0.341250
-35.380001	-26.718000	1017.541016	-0.800625	0.656250	-0.371875
-26.169001	-25.132000	1017.968018	-0.783125	0.476875	-0.043750
-31.720001	-30.134001	1018.090027	0.293125	-0.227500	-0.196875
-37.453999	-24.278000	1004.242981	0.157500	0.761250	-0.433125
-36.112000	-19.153999	1006.866028	2.091250	-0.599375	-0.166250
-33.184002	-13.725000	1027.484009	2.555000	-1.190000	0.616875
-34.038002	-17.080000	1022.908997	0.726250	1.281875	0.590625
-34.647999	-14.396000	1000.765991	1.417500	0.328125	-0.293125
-25.498001	-15.006001	1010.770020	-0.708750	0.787500	-0.161875
-28.853001	-14.945000	1022.238037	0.651875	-2.165625	0.393750
-34.647999	-14.762000	1026.264038	0.560000	-1.636250	0.157500
-34.526001	-17.080000	1019.737000	-3.486875	2.546250	0.341250
-34.403999	-18.177999	1012.600037	-3.180625	-0.240625	1.400000
-24.339001	-21.289000	1020.468994	-1.736875	-5.770625	0.857500
-24.766001	-20.496000	1009.122986	-3.198125	0.844375	0.739375
-24.156000	-22.875000	1003.572021	-0.708750	-3.228750	0.560000
-14.213000	-20.984001	1007.354004	2.598750	-1.351875	1.080625
-15.738000	-23.302000	1025.593018	-0.100625	-0.520625	1.321250
-22.204000	-21.472000	1033.706055	0.280000	0.481250	-0.538125
-29.280001	-13.969000	1015.161987	-1.036875	0.783125	-1.540000
-15.250000	-16.958000	1020.530029	0.485625	-0.840000	-0.971250
-13.420000	-19.886000	1009.184021	4.987500	-1.067500	0.336875
-16.226000	-24.888000	1016.442993	0.560000	-1.360625	0.748125
-14.030000	-23.302000	1024.983032	0.017500	-2.060625	-1.089375
-15.738000	-8.601000	1023.092041	-2.445625	1.238125	-1.286250
-12.200000	-17.080000	1014.674011	-2.358125	1.295000	-0.945000
-12.017000	-20.374001	1020.225037	1.303750	0.262500	-0.708750
-3.721000	-27.511000	1010.708984	1.351875	-0.140000	-1.544375
-3.965000	-14.335000	1015.650024	0.669375	0.021875	-2.725625
-15.006001	-9.699000	1010.343018	-1.203125	-0.831250	-1.281875
-10.370000	-12.383000	1025.166016	-1.303750	-0.280000	-0.350000
-8.479000	-19.032000	1017.541016	0.043750	0.870625	0.070000
-12.078000	-27.450001	1020.408020	0.183750	0.918750	0.118125
-7.808000	-19.703001	1015.772034	-0.752500	-0.004375	0.008750
-12.444000	-22.570000	1014.125000	0.560000	1.303750	-0.669375
-7.381000	-17.446001	1018.944031	-1.001875	-0.516250	-0.700000
-1.037000	-18.361000	1027.178955	0.236250	0.660625	0.441875
-9.516000	-11.712000	1012.173035	3.386250	1.421875	1.058750
-13.176001	-9.394000	1013.942017	0.433125	1.526875	1.614375
-11.895000	-5.673000	1012.721985	-0.179375	1.623125	0.345625
-11.712000	-3.538000	1023.518982	-0.017500	0.573125	-0.463750
-10.858000	-8.784000	1022.299011	-0.039375	1.032500	-0.201250
-12.505000	-10.553000	1016.504028	1.229375	1.303750	0.214375
-19.276001	-16.958000	1021.750000	1.032500	0.783125	0.179375
-17.812000	-10.248000	1010.892029	-0.599375	1.868125	0.030625
-17.568001	-16.531000	1013.088013	-0.555625	-0.175000	0.192500
-9.821000	-7.442000	1019.492981	-2.065000	1.426250	1.343125
-23.607000	-8.113000	1020.773987	2.716875	0.052500	0.595000
-16.775000	-13.542000	1020.408020	2.428125	-0.743750	0.446250
-14.274000	-17.080000	1022.848022	-3.351250	1.675625	0.039375
-12.017000	-11.590000	1021.750000	-1.789375	1.325625	-0.328125
-24.705000	-19.215000	1011.257996	-1.968750	2.275000	0.586250
-14.701000	-29.707001	1013.820007	-1.115625	1.001875	0.905625
-20.374001	-14.579000	1022.543030	-1.338750	0.546875	0.323750
-13.237000	-8.052000	1018.578003	-1.579375	-1.955625	1.080625
-6.588000	-9.333000	1015.650024	2.016875	-6.413750	2.537500
-1.464000	-13.237000	1019.859009	2.161250	-2.161250	1.776250
-0.793000	-10.187000	1008.817993	-1.356250	-0.087500	-0.910000
-1.464000	-15.311000	1014.186035	-4.388125	2.695000	-2.524375
-5.856000	-23.546000	1011.746033	-2.896250	4.843125	-2.401875
-14.457000	-21.594000	1022.543030	-2.253125	0.875000	-1.658125
-17.019001	-15.921000	1022.543030	1.076250	-1.710625	-1.124375
-8.479000	-13.847000	1024.677979	-4.283125	-2.795625	0.096250
-2.806000	-32.818001	1014.429993	-2.476250	-4.563125	0.953750
-1.159000	-26.596001	1010.587036	0.306250	-4.812500	0.875000
4.941000	-30.316999	1013.332031	1.281875	-0.647500	1.238125
2.684000	-16.531000	1014.307983	2.922500	1.220625	0.043750
-0.610000	-18.361000	1019.798035	0.249375	1.465625	-0.735000
2.928000	-18.666000	1016.504028	-2.520000	-0.568750	-0.861875
2.867000	-20.984001	1012.966003	-0.573125	-0.774375	-0.420000
8.662000	-21.472000	1015.283997	0.791875	-3.613750	-0.459375
2.562000	-14.823000	1009.855042	-1.124375	-2.918125	0.765625
10.797000	-36.478001	1020.286011	-2.883125	-0.778750	0.678125
12.261000	-45.139999	1015.161987	-2.651250	0.848750	-0.595000
14.274000	-36.660999	1008.085999	-3.132500	1.636250	-1.303750
5.551000	-13.115000	1014.674011	-0.035000	-0.498750	-1.715000
15.677000	-12.627000	1028.765015	-0.901250	-1.964375	-1.316875
9.821000	-27.389000	1029.253052	1.316875	-0.612500	-0.503125
17.934000	-29.829000	1022.726013	4.370625	1.106875	0.446250
14.274000	-29.402000	1005.158020	0.354375	3.368750	0.153125
14.823000	-30.866001	1016.382019	-0.516250	2.183125	-2.056250
11.834001	-33.428001	1020.468994	-4.996250	2.686250	-1.785000
17.812000	-33.062000	1023.335999	-4.287500	0.446250	-1.159375
6.832000	-35.014000	1005.585022	1.360625	1.281875	0.301875
7.686000	-30.134001	1010.648010	2.537500	0.774375	1.036875
10.736000	-17.080000	1015.161987	2.091250	-1.080625	0.428750
14.884000	-17.141001	1024.312012	0.013125	-0.616875	0.310625
12.566000	-19.153999	1013.575989	-1.491875	0.065625	-0.078750
11.956000	-20.130001	1010.830994	-1.413125	0.039375	-1.019375
12.749001	-21.655001	1014.674011	2.975000	-0.371875	-0.888125
16.958000	-25.132000	1025.166016	-0.210000	2.275000	0.078750
10.736000	-31.110001	1014.552002	1.391250	1.264375	-0.835625
12.810000	-20.557001	1026.324951	0.910000	1.701875	-0.695625
2.928000	-28.182001	1012.721985	-0.665000	2.003750	-0.113750
0.488000	-23.118999	1020.713013	1.701875	0.017500	0.070000
10.248000	-27.205999	1018.578003	0.402500	1.106875	-0.367500
8.052000	-21.899000	1019.554016	-0.284375	1.995000	-0.717500
1.586000	-17.750999	1013.148987	0.918750	1.102500	-0.319375
5.002000	-14.518001	1018.578003	1.076250	0.708750	-0.599375
-0.427000	-14.274000	1010.281982	0.490000	0.896875	0.013125
5.307000	-28.426001	1019.432007	-0.319375	1.750000	-0.564375
1.586000	-24.521999	1008.817993	-1.382500	1.032500	-0.630000
4.636000	-19.947001	1017.846008	1.627500	-0.288750	-1.233750
2.745000	-12.810000	1015.650024	2.450000	-1.281875	-1.032500
10.187000	-11.346000	1027.178955	-0.857500	0.288750	-0.083125
3.660000	-15.006001	1013.637024	0.288750	1.242500	-0.319375
12.261000	-13.420000	1008.879028	-1.509375	0.958125	0.612500
3.843000	-21.167000	1020.103027	-1.885625	1.785000	0.249375
2.318000	-19.642000	1016.260010	-0.393750	1.019375	-0.485625
5.307000	-18.849001	1019.309998	-1.710625	0.612500	-0.975625
14.335000	-24.278000	1022.543030	1.067500	-0.013125	-1.006250
4.819000	-18.544001	1013.210022	2.086875	-0.822500	0.161875
5.917000	-19.642000	1017.601990	-0.218750	-0.446250	-0.017500
2.867000	-16.042999	1016.504028	-0.157500	0.192500	-0.608125
5.856000	-18.726999	1012.843994	-0.700000	0.109375	-0.638750
6.100000	-19.093000	1007.781006	1.063125	-1.120000	-1.058750
9.699000	-20.984001	1009.976990	-0.100625	-2.178750	-1.526875
13.298000	-17.568001	1027.484009	1.133125	-0.826875	-1.535625
9.394000	-11.956000	1015.406006	0.651875	-0.870625	-0.621250
21.837999	-20.191000	1023.885010	-3.071250	0.765625	0.888125
13.298000	-24.644001	1040.781982	-2.931250	2.213750	1.050000
3.233000	-23.302000	1000.827026	-3.031875	5.018125	0.258125
9.760000	-22.143000	1000.400024	-1.203125	0.433125	-0.393750
19.703001	-22.082001	1018.028992	0.341250	-1.347500	-0.271250
13.237000	-23.668001	1017.296997	0.231875	0.787500	0.446250
12.566000	-18.544001	1017.114014	0.271250	-0.245000	0.319375
17.385000	-24.034000	1024.006958	-1.058750	0.748125	0.074375
22.753000	-17.080000	1014.613037	2.257500	0.367500	-0.463750
10.065001	-17.323999	1000.643982	5.166875	-0.840000	-0.494375
16.104000	-10.248000	1020.835022	2.887500	-2.030000	-0.297500
14.762000	-10.858000	1022.359985	-1.010625	-0.809375	-0.739375
19.459000	-14.030000	1023.580017	-1.321250	1.386875	-0.752500
9.577000	-5.917000	1030.594971	-0.126875	-2.485000	-0.564375
20.374001	-22.082001	1021.872009	-0.923125	-4.873750	0.415625
19.947001	-30.683001	1021.445007	1.452500	-5.810000	0.848750
32.879002	0.854000	1028.276978	1.890000	5.928125	1.426250
24.644001	-18.910000	1017.601990	-0.791875	2.121875	0.739375
25.010000	-7.137000	1011.014038	-0.293125	1.531250	0.043750
25.437000	-19.032000	1015.467041	-0.061250	2.756250	0.284375
26.169001	-18.666000	1020.713013	-0.586250	1.316875	-0.332500
22.997000	-12.078000	1010.403992	-1.378125	1.400000	-0.875000
18.056000	-4.575000	1016.869995	-0.376250	0.568750	-0.892500
16.836000	-12.566000	1022.421021	-0.630000	1.741250	-0.301875
13.664001	-10.553000	1009.306030	-0.280000	1.001875	0.398125
15.616000	-17.080000	1015.893982	-0.236250	1.548750	0.161875
18.056000	-16.836000	1024.617065	-2.852500	0.249375	-0.183750
12.139000	-12.627000	1011.624023	0.892500	1.360625	-0.686875
9.882000	-18.117001	1013.942017	-0.336875	1.750000	-0.183750
17.507000	-23.302000	1017.419006	-0.542500	1.491875	-0.078750
15.433001	-20.496000	1021.384033	0.529375	0.809375	-0.341250
12.993000	-12.993000	1019.187988	-0.214375	2.555000	0.371875
8.418000	-13.237000	1017.419006	0.840000	-0.284375	-0.341250
11.102000	-8.296000	1025.714966	-0.332500	0.599375	-0.472500
10.248000	-15.006001	1014.064026	-2.358125	2.056250	-0.529375
13.908000	-10.248000	1024.494995	-1.780625	0.905625	-0.188125
4.758000	-14.335000	1025.958984	-4.510625	2.218125	0.791875
6.161000	-26.230000	1002.596008	-2.078125	3.101875	0.153125
3.660000	-20.007999	1010.953003	-0.673750	-0.498750	-0.770000
15.067000	-26.596001	1022.054993	0.135625	-1.133125	-0.721875
10.431000	-22.936001	1007.536987	0.336875	1.080625	-0.179375
12.200000	-15.616000	1018.639038	-0.682500	-0.595000	-0.118125
5.002000	-25.315001	1015.650024	2.130625	-0.096250	-0.730625
5.063000	-19.276001	1018.944031	-0.118125	0.122500	-0.354375
12.322001	-24.888000	1021.994019	-2.275000	0.048125	-0.306250
10.980000	-19.520000	1014.613037	-1.111250	1.395625	-0.905625
9.028000	-14.213000	1004.914001	-2.209375	1.841875	0.336875
11.346000	-27.999001	1017.785034	0.809375	-1.106875	0.581875
12.688000	-24.888000	1029.924072	-0.818125	0.901250	0.533750
14.091001	-22.021000	1015.467041	-0.406875	0.713125	-0.901250
13.664001	-21.228001	1013.880981	-0.870625	0.621250	-0.892500
13.054000	-19.337000	1014.491028	-1.124375	0.280000	-0.253750
10.431000	-24.583000	1017.846008	-0.420000	0.888125	-0.301875
12.261000	-21.837999	1023.335999	-1.006250	-0.008750	-0.201250
10.004000	-26.108000	1016.626038	0.621250	0.818125	-0.468125
15.555000	-19.703001	1011.989990	-0.621250	0.074375	-0.345625
16.348000	-21.655001	1016.626038	0.109375	0.433125	-0.805000
9.882000	-21.228001	1025.471069	0.945000	-0.595000	-0.870625
13.542000	-19.580999	1018.944031	-0.883750	1.693125	-0.262500
15.311000	-26.840000	1018.090027	0.840000	1.050000	-0.835625
9.211000	-14.091001	1018.760986	1.575000	0.131250	-0.463750
16.042999	-22.448000	1012.721985	-0.083125	1.120000	-0.367500
13.786000	-19.642000	1012.112000	1.041250	0.000000	-0.953750
12.932000	-15.860001	1016.260010	-0.301875	0.249375	-0.980000
10.065001	-12.017000	1021.994019	-0.516250	0.109375	-0.673750
11.224000	-19.520000	1017.174988	1.137500	0.087500	-0.105000
11.285000	-23.424000	1025.898071	1.159375	-0.140000	-0.043750
9.150001	-16.775000	1015.161987	-0.358750	0.910000	-0.616875
16.042999	-17.812000	1019.676025	-0.428750	0.700000	-0.743750
12.322001	-12.505000	1017.846008	-1.190000	1.277500	-0.293125
17.080000	-25.681000	1017.968018	-0.363125	1.820000	0.691250
7.930000	-22.204000	1020.468994	2.625000	-0.551250	-0.577500
15.860001	-17.568001	1020.530029	-1.592500	1.693125	-0.288750
17.873001	-22.814001	1020.530029	-2.572500	2.165625	-0.371875
9.638000	-19.153999	1012.721985	0.000000	1.793750	-0.183750
12.688000	-19.215000	1018.395020	-0.008750	1.579375	0.669375
8.601000	-22.082001	1013.759033	0.923125	-0.039375	-0.140000
10.858000	-17.446001	1018.882996	-0.616875	0.735000	-0.643125
11.712000	-18.177999	1013.637024	-1.544375	1.439375	-0.717500
10.980000	-16.714001	1006.804993	0.402500	-0.223125	-0.319375
9.760000	-18.544001	1016.015991	0.450625	0.529375	0.070000
0.793000	-20.130001	1023.640991	-0.140000	0.853125	-0.402500
8.723001	-23.180000	1021.200989	-1.680000	1.251250	-0.568750
11.529000	-23.058001	1020.652039	-1.505000	0.927500	-0.258125
6.466000	-17.263000	1009.671997	-0.818125	1.019375	0.188125
12.139000	-18.910000	1017.480042	0.516250	0.083125	-0.153125
2.745000	-13.176001	1021.994019	0.546875	0.236250	-0.638750
7.991000	-13.420000	1017.846008	-2.852500	2.030000	-0.113750
8.052000	-18.849001	1019.432007	-0.888125	1.137500	-0.481250
5.673000	-23.058001	1010.221008	0.021875	0.599375	0.140000
6.222000	-18.971001	1006.682983	-0.328125	1.076250	0.586250
10.309000	-19.825001	1018.760986	-0.310625	-0.573125	-0.065625
6.222000	-25.498001	1022.359985	-1.785000	0.971250	-0.319375
5.978000	-22.570000	1018.760986	-1.369375	0.297500	-0.398125
13.603000	-21.472000	1015.893982	0.052500	0.507500	-0.271250
3.965000	-19.398001	1014.186035	1.264375	-0.336875	-0.358750
10.126000	-23.790001	1008.574036	-0.551250	0.739375	-0.035000
13.054000	-26.596001	1027.545044	-0.940625	-0.179375	-0.245000
7.869000	-28.059999	1010.465027	-0.354375	0.883750	-0.787500
9.821000	-18.849001	1017.663025	-1.653750	0.091875	-0.511875
7.320000	-24.948999	1019.309998	0.105000	-0.472500	-0.765625
8.052000	-22.936001	1018.455994	-1.220625	1.058750	-0.319375
15.067000	-21.533001	1015.893982	-1.680000	0.630000	-0.411250
13.298000	-21.594000	1011.989990	0.345625	0.695625	-0.756875
13.542000	-19.520000	1017.846008	-1.255625	0.984375	0.227500
11.956000	-22.875000	1017.968018	0.875000	-0.310625	-0.533750
13.359000	-20.252001	1017.236023	-0.586250	1.163750	-0.341250
11.285000	-28.426001	1012.112000	0.437500	0.717500	-0.831250
17.812000	-19.947001	1016.626038	1.732500	-0.721875	-0.826875
11.834001	-19.764000	1024.739014	0.770000	-0.288750	-0.363125
6.222000	-23.790001	1014.796021	-0.774375	1.706250	0.078750
14.640000	-25.620001	1019.798035	-0.905625	-0.301875	-0.210000
12.505000	-21.837999	1009.611023	-0.367500	1.098125	-0.783125
15.799000	-20.496000	1017.906982	-0.411250	-0.323750	-0.074375
8.784000	-20.496000	1019.309998	2.944375	-0.590625	-0.161875
8.357000	-17.812000	1026.935059	1.111250	0.048125	0.406875
12.932000	-18.849001	1028.216064	-0.774375	1.916250	0.328125
7.930000	-17.690001	1019.432007	0.643125	1.386875	-0.297500
12.688000	-17.202000	1015.588989	-1.207500	2.480625	0.249375
16.165001	-15.677000	1011.624023	0.787500	0.695625	0.048125
10.858000	-22.204000	1015.345032	-0.118125	1.750000	0.262500
12.200000	-26.474001	1013.697998	-1.316875	1.815625	0.433125
13.664001	-27.938000	1019.309998	-0.240625	0.577500	0.367500
14.030000	-20.252001	1013.088013	0.476875	0.494375	-0.822500
6.344000	-9.882000	1011.014038	-0.105000	-0.039375	-1.308125
7.137000	-9.150001	1027.972046	0.809375	0.188125	0.065625
2.562000	-19.032000	1021.505981	2.196250	1.058750	0.783125
9.882000	-25.864000	1022.604004	1.850625	0.065625	-0.056875
9.943000	-18.056000	1013.210022	2.126250	0.420000	-1.408750
11.407001	-6.222000	1014.429993	-1.093750	2.865625	-0.875000
7.930000	-12.810000	1027.666992	0.017500	1.238125	0.293125
3.172000	-22.082001	1015.955017	1.693125	2.629375	0.861875
7.442000	-16.104000	1010.403992	-2.244375	2.384375	0.201250
8.174000	-7.625000	1004.853027	-0.783125	1.347500	-0.770000
10.797000	-7.808000	1020.957031	0.555625	-0.083125	-0.376250
1.403000	-7.442000	1013.148987	-0.310625	0.336875	-0.105000
4.331000	-7.442000	1016.869995	1.260000	0.227500	-1.010625
0.305000	-11.956000	1016.382019	1.050000	1.435000	-1.338750
4.270000	-11.346000	1015.833008	-0.336875	0.533750	-1.076250
2.440000	-10.736000	1015.893982	-1.150625	0.481250	-0.905625
11.773000	-8.113000	1009.549988	-2.086875	1.448125	-0.870625
9.638000	-15.616000	1020.895996	-0.542500	0.765625	-0.196875
-0.976000	-10.248000	1018.395020	3.692500	-0.140000	-0.192500
3.172000	-10.919000	1017.114014	3.246250	0.608125	-0.971250
-2.928000	-0.915000	1027.605957	5.814375	-0.371875	-2.318750
9.455000	12.932000	1033.645020	-0.686875	2.073750	-1.540000
2.318000	-5.612000	1002.413025	-6.348125	6.405000	0.980000
6.893000	-15.006001	998.447998	-1.233750	1.281875	1.662500
8.418000	-17.446001	1011.746033	2.030000	0.070000	1.369375
11.102000	-6.893000	1016.869995	4.571875	-1.518125	-0.214375
2.684000	2.562000	1018.333984	3.753750	-1.701875	-1.155000
5.612000	25.071001	1019.309998	1.050000	-1.023750	-2.266250
-0.854000	17.385000	1010.403992	-2.905000	-0.529375	-1.028125
3.294000	2.928000	1018.578003	-2.323125	-0.678125	-0.612500
9.150001	-4.636000	1020.957031	-2.222500	-0.118125	0.223125
9.699000	-7.198000	1025.714966	-0.056875	0.428750	-0.371875
-0.366000	-2.196000	1019.798035	0.065625	0.953750	-1.115625
7.137000	-2.623000	1024.006958	-1.233750	1.701875	-0.358750
6.161000	-8.662000	1026.874023	2.240000	2.130625	0.157500
3.050000	-0.976000	1011.562988	1.373750	2.261875	0.665000
3.782000	1.525000	1005.402039	0.411250	1.728125	0.188125
11.346000	0.976000	1014.796021	0.459375	0.398125	-0.288750
5.551000	3.904000	1014.918030	1.010625	0.778750	-0.096250
7.381000	8.723001	1018.578003	1.373750	-0.249375	0.118125
0.915000	2.196000	1004.791992	1.299375	0.459375	-0.223125
8.052000	7.076000	1019.859009	1.688750	-1.032500	-0.577500
4.514000	8.784000	1025.471069	0.350000	-0.035000	-0.739375
9.394000	8.296000	1017.236023	0.266875	0.826875	-0.529375
5.429000	5.856000	1012.661011	1.054375	-0.310625	-0.638750
-0.976000	8.723001	1015.040039	1.487500	-0.560000	-0.866250
6.100000	11.468000	1028.338013	-1.680000	1.211875	-0.428750
4.941000	3.721000	1026.874023	-0.472500	1.190000	-0.402500
-1.037000	7.686000	1019.614990	0.621250	1.627500	0.170625
8.967000	7.808000	1011.746033	0.332500	1.496250	0.249375
11.346000	18.361000	1019.614990	1.623125	-0.485625	-0.406875
7.198000	17.080000	1017.968018	-0.748125	1.951250	-0.205625
7.869000	17.690001	1017.723999	0.306250	1.185625	-0.446250
5.429000	9.760000	1019.859009	0.888125	1.176875	-0.459375
2.806000	11.407001	1004.791992	0.892500	0.966875	-0.621250
7.564000	15.189000	1017.419006	1.465625	0.231875	-0.161875
8.357000	12.993000	1014.125000	0.039375	1.369375	-0.393750
5.734000	9.272000	1019.981018	-1.728125	0.634375	-0.507500
-2.562000	17.385000	1012.112000	2.148125	-0.463750	-1.102500
-0.610000	14.396000	1028.276978	-0.603750	0.236250	-0.039375
8.235000	13.298000	1025.044067	-1.540000	1.058750	0.306250
0.549000	18.422001	1015.283997	0.621250	1.036875	-0.621250
4.636000	20.374001	1002.718018	-1.986250	1.089375	-0.157500
6.771000	16.714001	1017.174988	-0.739375	-0.380625	-0.118125
4.514000	12.932000	1028.582031	-1.408750	0.660625	0.000000
6.466000	9.882000	1011.257996	-2.463125	1.089375	-0.048125
12.139000	10.370000	1010.281982	-0.616875	-0.468125	-0.708750
3.538000	16.104000	1011.624023	-0.420000	-0.625625	-0.266875
2.196000	13.908000	1020.408020	-0.245000	-1.255625	0.402500
6.954000	11.224000	1026.874023	-1.198750	-0.371875	0.533750
4.392000	5.185000	1008.513000	-1.706250	0.879375	0.192500
4.148000	4.148000	1024.617065	-1.701875	-0.883750	0.201250
8.052000	11.956000	1016.992004	3.565625	-0.603750	-0.017500
11.041000	16.469999	1014.918030	-0.153125	0.761250	0.363125
11.529000	9.638000	1027.849976	-2.743125	0.183750	0.227500
9.394000	9.272000	1017.541016	-1.456875	1.386875	0.437500
14.152000	6.100000	1008.695984	-0.306250	1.806875	0.844375
11.224000	10.797000	1010.830994	1.277500	-0.026250	0.647500
9.333000	1.830000	1021.994019	-1.041250	0.490000	0.280000
16.226000	8.418000	1024.006958	-1.211875	0.428750	-0.616875
11.590000	4.514000	1012.478027	-1.583750	0.533750	-0.975625
7.320000	9.333000	1016.931030	-0.892500	0.196875	-0.415625
7.442000	5.856000	1022.786987	-0.358750	-0.984375	0.166250
11.651000	7.259000	1024.067993	1.408750	0.621250	-0.428750
10.492001	10.614000	1015.833008	-0.568750	0.026250	-0.708750
13.359000	7.442000	1027.422974	0.717500	0.717500	-0.848750
11.285000	12.993000	1021.932983	1.391250	1.343125	-0.743750
8.662000	5.002000	1019.432007	-0.459375	2.485000	-0.813750
6.954000	10.248000	1025.044067	0.350000	1.645000	-0.831250
3.111000	10.004000	1014.307983	-0.468125	2.187500	-0.630000
12.261000	6.893000	1009.794006	1.417500	0.853125	-0.341250
10.126000	11.468000	1015.893982	1.185625	-0.013125	-0.249375
11.712000	14.701000	1019.919983	-0.918750	2.432500	-0.280000
8.418000	8.906000	1013.575989	-0.503125	1.833125	-0.612500
0.122000	10.614000	1012.478027	0.310625	0.573125	-0.700000
1.891000	16.592001	1013.454041	1.203125	0.748125	-0.686875
8.723001	14.640000	1015.772034	-0.218750	0.577500	-0.236250
4.331000	8.174000	1021.445007	-0.818125	1.430625	-0.363125
7.381000	9.272000	1019.249023	-0.673750	1.273125	-0.476875
-2.196000	12.810000	1019.005005	2.266250	0.109375	-0.608125
7.015000	14.518001	1022.970032	-0.647500	1.675625	-0.048125
2.318000	11.041000	1025.776001	-0.638750	0.945000	-0.358750
-1.159000	15.372000	1016.077026	0.498750	1.977500	-0.385000
-3.233000	16.348000	1013.697998	-2.073750	2.769375	0.284375
0.854000	12.993000	1012.539001	0.905625	-0.415625	0.188125
3.660000	8.967000	1023.945984	-0.214375	0.271250	-0.280000
2.196000	16.714001	1012.966003	-1.050000	1.050000	-0.297500
1.830000	15.982000	1011.989990	-0.581875	-0.586250	-0.730625
-1.342000	9.638000	1018.212036	-0.525000	0.096250	-0.196875
-4.514000	11.834001	1019.614990	-0.113750	0.358750	0.284375
-2.867000	3.538000	1012.966003	-0.341250	0.866250	0.153125
3.294000	5.612000	1005.768005	-1.623125	-0.446250	-0.039375
8.479000	7.808000	1028.216064	0.275625	-0.525000	-0.380625
-6.039000	14.640000	1000.095032	2.366875	0.109375	-0.087500
3.172000	12.810000	1033.279053	-2.205000	-0.560000	0.778750
11.651000	2.440000	1028.093994	-6.536250	2.038750	1.093750
-1.647000	9.333000	1002.473999	-1.649375	1.570625	0.525000
1.952000	-0.061000	996.617981	-0.616875	-1.141875	1.688750
-6.771000	14.823000	1021.140015	2.471875	-4.335625	1.050000
9.516000	11.956000	1038.769043	-1.741250	-0.634375	-0.695625
4.758000	18.361000	1018.151001	-2.703750	1.526875	-0.892500
7.564000	11.773000	1025.654053	0.853125	0.971250	0.455000
3.294000	6.649000	1021.750000	1.701875	3.294375	1.522500
0.976000	2.806000	996.862000	1.483125	2.511250	1.203125
14.213000	-0.183000	1019.371033	0.463750	-1.015000	-0.280000
2.928000	9.821000	1024.006958	-0.949375	2.121875	-0.752500
1.952000	6.832000	1021.811035	0.030625	-0.463750	-0.310625
3.172000	0.915000	1025.958984	-0.586250	0.555625	0.249375
1.220000	0.488000	1013.820007	-1.876875	2.056250	0.271250
0.732000	11.895000	1021.445007	1.662500	-0.752500	0.323750
6.161000	14.274000	1023.580017	2.782500	-0.113750	2.213750
15.982000	15.128000	1008.817993	4.882500	-1.063125	3.753750
9.821000	10.370000	1023.518982	4.978750	-2.555000	1.286250
1.281000	18.544001	1014.307983	-1.951250	1.666875	-0.896875
20.007999	15.433001	1006.439026	-3.976875	2.209375	-0.608125
19.093000	18.971001	997.411011	-7.035000	2.130625	-0.586250
19.337000	-17.812000	1048.102051	-3.500000	0.157500	-1.006250
-5.856000	-23.790001	1025.166016	1.754375	1.925000	1.321250
-11.407001	16.896999	999.790039	-2.476250	1.054375	5.425000
3.538000	36.478001	1019.614990	1.596875	0.109375	5.040000
11.468000	11.285000	1039.989014	9.550625	-0.870625	4.038125
-5.185000	3.233000	1010.098999	8.089375	2.817500	3.150000
-12.627000	23.973000	987.468018	-4.182500	1.627500	2.279375
10.187000	10.248000	1053.104004	-7.848750	1.137500	0.441875
11.224000	-0.854000	1034.376953	1.133125	3.373125	-0.835625
-10.309000	6.222000	986.431030	4.970000	1.623125	-0.061250
1.769000	12.566000	1004.731018	5.726875	-1.771875	0.490000
9.699000	12.627000	1029.680054	3.565625	0.183750	0.822500
-9.272000	19.093000	989.359009	1.102500	0.980000	0.000000
5.063000	21.594000	1024.983032	-4.449375	-2.590000	-0.450625
6.832000	21.167000	1024.373047	-3.311875	0.328125	0.074375
5.612000	15.372000	1011.989990	2.340625	1.133125	0.310625
9.394000	19.459000	1003.877014	3.298750	-2.415000	0.406875
15.250000	23.546000	1016.015991	1.627500	-2.104375	-1.815625
14.640000	28.548000	1030.473022	-3.788750	-1.417500	-3.224375
4.148000	15.555000	1022.238037	-0.196875	0.310625	-2.686250
2.562000	4.270000	1026.385986	-0.708750	-0.091875	-1.229375
7.198000	1.952000	1028.276978	-3.889375	1.190000	-0.866250
13.359000	18.300001	1020.530029	0.634375	0.472500	-2.148125
10.919000	29.097000	1017.601990	-1.168125	1.211875	-1.575000
6.710000	24.034000	1027.422974	2.887500	0.511875	-2.681875
1.220000	35.501999	1011.867981	3.526250	0.879375	-3.425625
9.882000	39.528000	1031.083008	1.518125	1.505000	-3.801875
6.588000	30.866001	1017.846008	2.051875	2.388750	-2.782500
5.368000	13.603000	1011.684998	-0.030625	3.521875	-0.179375
0.732000	3.660000	1019.737000	-1.793750	2.078125	-0.336875
-0.854000	9.272000	1030.107056	-2.651250	3.001250	-2.515625
-3.843000	31.049000	1018.212036	-0.310625	2.865625	-6.505625
-9.028000	45.139999	1008.390991	-0.446250	2.922500	-4.305000
1.830000	30.316999	1016.809021	6.405000	0.612500	-0.223125
3.965000	22.387001	1016.565002	4.628750	1.063125	1.378125
-4.453000	18.177999	1013.210022	-1.850625	2.450000	-0.385000
3.355000	26.901001	1010.648010	-1.596875	1.833125	-2.874375
4.941000	31.171000	1015.223022	-1.710625	-0.271250	-2.270625
3.660000	28.792000	1012.721985	-0.433125	-0.367500	-0.634375
-2.562000	31.537001	1012.173035	2.292500	-0.848750	0.118125
-6.344000	23.790001	1021.567017	-1.413125	-0.463750	0.748125
-8.418000	24.339001	1020.408020	-0.875000	0.424375	0.153125
-5.185000	20.374001	1026.568970	-1.649375	-0.275625	-0.686875
-5.368000	26.535000	1018.944031	-1.671250	1.102500	-0.485625
-8.174000	28.731001	1015.710999	-0.170625	-0.210000	0.021875
-7.686000	21.472000	1026.630005	0.048125	0.253750	0.682500
-0.122000	21.106001	1025.410034	-1.526875	0.787500	0.875000
1.037000	20.618000	1008.025024	-0.017500	1.487500	0.231875
-4.514000	26.108000	1015.893982	-0.284375	-0.341250	-0.455000
-1.708000	30.439001	1026.508057	-4.095000	1.680000	-0.170625
1.159000	21.472000	1020.835022	0.170625	1.102500	-0.673750
2.257000	27.938000	1007.842041	-0.441875	1.693125	0.883750
3.416000	17.629000	1016.199036	-0.166250	-0.380625	0.883750
7.015000	16.104000	1002.718018	-1.955625	1.653750	-0.153125
-8.601000	14.762000	999.546021	-0.866250	-2.143750	-0.835625
0.427000	22.021000	1049.199951	1.999375	-3.014375	-1.028125
-3.050000	27.145000	1031.815063	1.417500	2.292500	-0.109375
-4.148000	16.165001	1009.062012	-1.286250	2.270625	0.507500
2.745000	17.934000	1001.376038	-1.583750	1.671250	-0.109375
-4.697000	19.153999	1000.949036	-1.093750	-0.984375	-1.019375
-6.100000	28.243000	1038.769043	0.144375	-2.611875	-1.430625
-0.366000	28.792000	1028.399048	2.603125	1.990625	-1.365000
-2.440000	36.173000	988.382996	2.891875	-0.328125	-2.314375
13.481000	32.330002	1001.864014	-2.633750	-1.894375	-2.143750
8.174000	25.010000	1031.937012	-0.586250	-1.701875	-1.911875
4.331000	13.298000	1037.732056	2.410625	0.236250	-0.787500
-6.832000	5.795000	1031.265991	-0.822500	3.583125	0.581875
1.281000	9.272000	1027.118042	0.818125	1.588125	-1.050000
13.420000	29.707001	1012.661011	1.478750	3.097500	-1.666875
6.222000	40.382000	993.445984	1.671250	1.636250	-0.761250
13.420000	41.602001	1006.195007	1.308125	-1.570625	0.210000
12.078000	33.793999	1016.077026	-1.115625	-0.135625	0.030625
