A_X[mg]	A_Y[mg]	A_Z[mg]	G_X[dps]	G_Y[dps]	G_Z[dps]	
-6.527000	11.102000	1013.088013	-0.376250	0.612500	-0.249375
2.074000	6.771000	1011.867981	-0.293125	0.638750	-0.350000
5.246000	5.002000	1012.356018	-0.275625	0.595000	-0.183750
13.847000	10.126000	1013.454041	-0.161875	0.599375	-0.249375
5.307000	2.745000	1014.307983	-0.170625	0.424375	-0.310625
8.967000	8.235000	1014.796021	-0.144375	0.498750	-0.258125
10.004000	7.076000	1014.674011	-0.275625	0.608125	-0.306250
7.564000	5.490000	1014.186035	-0.424375	0.713125	-0.437500
4.270000	4.636000	1010.281982	-0.376250	0.612500	-0.301875
4.880000	6.100000	1014.491028	-0.231875	0.402500	-0.315000
5.856000	8.174000	1012.600037	-0.157500	0.468125	-0.271250
6.588000	9.638000	1016.565002	-0.236250	0.511875	-0.306250
6.954000	4.209000	1017.785034	-0.415625	0.428750	-0.284375
3.294000	3.904000	1013.332031	-0.214375	0.446250	-0.336875
8.845000	9.699000	1016.931030	-0.323750	0.525000	-0.306250
4.026000	2.501000	1015.283997	-0.354375	0.581875	-0.205625
4.514000	4.148000	1012.600037	-0.179375	0.446250	-0.306250
12.993000	5.856000	1010.892029	-0.275625	0.507500	-0.280000
7.930000	8.052000	1013.880981	-0.210000	0.476875	-0.323750
1.403000	5.002000	1013.820007	-0.301875	0.616875	-0.297500
11.590000	9.333000	1012.966003	-0.446250	0.866250	-0.319375
9.638000	-0.061000	1012.356018	-0.319375	0.643125	-0.297500
10.065001	14.457000	1018.395020	-0.503125	0.756875	-0.332500
9.150001	8.235000	1016.992004	-0.345625	0.577500	-0.310625
10.858000	2.013000	1013.210022	-0.350000	0.551250	-0.245000
7.686000	7.991000	1015.040039	-0.271250	0.455000	-0.293125
2.074000	9.882000	1017.906982	-0.231875	0.511875	-0.175000
7.747000	12.200000	1012.783020	-0.280000	0.656250	-0.227500
7.198000	1.647000	1015.101013	-0.332500	0.643125	-0.253750
0.305000	5.917000	1013.697998	-0.258125	0.411250	-0.245000
3.477000	11.041000	1014.918030	-0.126875	0.328125	-0.227500
10.126000	7.442000	1014.918030	-0.218750	0.516250	-0.315000
5.124000	7.320000	1012.234009	-0.236250	0.507500	-0.332500
7.686000	3.782000	1014.307983	-0.166250	0.428750	-0.153125
13.481000	8.235000	1014.429993	-0.188125	0.293125	-0.227500
3.965000	13.847000	1012.721985	-0.166250	0.441875	-0.406875
6.588000	3.477000	1013.332031	-0.188125	0.498750	-0.406875
1.098000	10.309000	1012.843994	-0.332500	0.739375	-0.262500
8.357000	10.248000	1012.966003	-0.354375	0.546875	-0.196875
12.383000	10.858000	1015.161987	-0.288750	0.546875	-0.179375
3.111000	7.442000	1015.650024	-0.131250	0.520625	-0.258125
5.978000	6.527000	1010.281982	-0.363125	0.542500	-0.271250
7.930000	6.100000	1013.027039	-0.144375	0.367500	-0.201250
5.246000	8.662000	1017.785034	-0.323750	0.630000	-0.214375
7.198000	8.174000	1012.966003	-0.376250	0.774375	-0.258125
1.647000	7.198000	1013.088013	-0.350000	0.568750	-0.328125
7.015000	9.272000	1014.674011	-0.358750	0.551250	-0.293125
8.784000	9.882000	1012.478027	-0.078750	0.385000	-0.271250
3.111000	9.638000	1011.014038	-0.144375	0.406875	-0.293125
5.734000	5.856000	1016.565002	-0.148750	0.437500	-0.293125
1.220000	7.686000	1015.772034	-0.336875	0.494375	-0.376250
4.758000	2.806000	1015.283997	-0.170625	0.411250	-0.328125
5.978000	7.015000	1012.966003	-0.135625	0.402500	-0.188125
3.416000	7.564000	1012.966003	-0.192500	0.323750	-0.170625
1.464000	8.662000	1014.918030	-0.100625	0.463750	-0.315000
11.041000	7.320000	1014.674011	-0.253750	0.463750	-0.328125
5.978000	8.540000	1011.746033	-0.411250	0.638750	-0.341250
1.830000	10.126000	1015.955017	-0.371875	0.520625	-0.258125
5.429000	9.638000	1015.650024	-0.293125	0.503125	-0.214375
4.270000	6.832000	1015.528015	-0.306250	0.608125	-0.223125
6.954000	9.699000	1013.210022	-0.179375	0.546875	-0.297500
7.198000	10.614000	1015.650024	-0.118125	0.520625	-0.284375
2.684000	4.697000	1014.674011	-0.205625	0.437500	-0.249375
6.283000	9.699000	1009.549988	-0.415625	0.573125	-0.297500
8.052000	5.002000	1016.320984	-0.258125	0.503125	-0.223125
5.734000	6.954000	1015.283997	-0.328125	0.525000	-0.249375
1.220000	5.978000	1014.307983	-0.275625	0.507500	-0.293125
3.172000	12.139000	1015.650024	-0.135625	0.398125	-0.293125
10.065001	5.185000	1012.843994	-0.179375	0.411250	-0.201250
8.662000	7.442000	1014.796021	-0.223125	0.380625	-0.271250
7.259000	10.309000	1013.820007	-0.275625	0.546875	-0.170625
4.148000	8.296000	1009.671997	-0.293125	0.568750	-0.196875
4.514000	4.392000	1013.270996	-0.223125	0.686875	-0.336875
1.342000	5.734000	1016.077026	-0.393750	0.765625	-0.205625
4.087000	4.026000	1013.820007	-0.315000	0.398125	-0.188125
10.187000	11.895000	1015.833008	-0.091875	0.450625	-0.214375
11.102000	8.662000	1014.674011	-0.201250	0.380625	-0.297500
-1.647000	6.832000	1011.624023	-0.245000	0.420000	-0.310625
2.135000	6.832000	1014.856995	-0.271250	0.507500	-0.301875
4.148000	16.896999	1011.562988	-0.148750	0.481250	-0.218750
-2.257000	8.235000	1012.966003	-0.236250	0.450625	-0.192500
12.322001	6.954000	1016.320984	-0.336875	0.525000	-0.258125
6.710000	11.773000	1018.882996	-0.179375	0.560000	-0.332500
3.294000	5.063000	1019.798035	-0.192500	0.376250	-0.345625
-0.366000	4.758000	1011.319031	-0.236250	0.498750	-0.319375
6.893000	7.869000	1012.356018	-0.113750	0.481250	-0.315000
12.017000	3.782000	1015.955017	-0.389375	0.791875	-0.271250
8.418000	13.542000	1011.867981	-0.406875	0.660625	-0.455000
-0.305000	7.747000	1014.125000	-0.306250	0.634375	-0.490000
-0.061000	3.721000	1010.526001	-0.476875	0.463750	-0.183750
0.732000	10.553000	1010.403992	-0.367500	0.634375	-0.109375
8.113000	15.311000	1013.880981	-0.275625	0.542500	-0.157500
6.710000	2.135000	1012.600037	-0.214375	0.315000	-0.275625
2.562000	1.952000	1012.356018	-0.249375	0.472500	-0.249375
2.196000	12.261000	1013.088013	-0.363125	0.603750	-0.070000
6.893000	10.492001	1018.273010	-0.371875	0.778750	-0.201250
7.564000	12.444000	1017.723999	-0.192500	0.441875	-0.336875
4.270000	5.551000	1014.064026	-0.210000	0.420000	-0.380625
-5.307000	5.246000	1015.406006	-0.210000	0.310625	-0.371875
7.259000	8.662000	1014.064026	-0.306250	0.472500	-0.236250
5.246000	9.760000	1019.614990	-0.240625	0.630000	-0.288750
2.440000	8.052000	1013.880981	-0.091875	0.463750	-0.336875
3.050000	7.198000	1012.356018	-0.140000	0.481250	-0.262500
1.464000	5.856000	1011.867981	-0.275625	0.568750	-0.306250
6.283000	14.823000	1014.734985	-0.363125	0.700000	-0.227500
5.734000	7.747000	1015.406006	-0.402500	0.721875	-0.306250
1.830000	2.257000	1010.038025	-0.140000	0.476875	-0.306250
2.318000	-1.830000	1015.955017	-0.214375	0.516250	-0.201250
6.100000	6.954000	1014.429993	-0.345625	0.581875	-0.306250
4.758000	8.906000	1016.260010	-0.310625	0.463750	-0.385000
7.625000	7.320000	1011.257996	-0.350000	0.546875	-0.332500
3.782000	4.880000	1014.734985	-0.428750	0.420000	-0.201250
8.967000	10.309000	1013.820007	-0.196875	0.420000	-0.240625
1.525000	13.115000	1011.380005	-0.227500	0.468125	-0.231875
4.453000	9.150001	1013.210022	-0.258125	0.411250	-0.323750
4.514000	8.296000	1014.552002	-0.293125	0.494375	-0.258125
-1.769000	9.028000	1014.307983	-0.310625	0.555625	-0.161875
4.575000	13.359000	1013.575989	-0.105000	0.253750	-0.157500
3.660000	4.636000	1014.429993	-0.310625	0.516250	-0.214375
4.758000	10.431000	1018.760986	-0.266875	0.468125	-0.236250
5.978000	8.418000	1017.358032	-0.188125	0.481250	-0.175000
4.392000	7.808000	1013.820007	-0.236250	0.643125	-0.205625
3.782000	6.222000	1016.809021	-0.319375	0.590625	-0.319375
4.270000	3.294000	1013.088013	-0.288750	0.511875	-0.323750
7.381000	7.015000	1013.697998	-0.013125	0.415625	-0.262500
3.050000	10.797000	1011.380005	0.048125	0.433125	-0.328125
-0.976000	8.784000	1012.600037	-0.153125	0.437500	-0.332500
4.392000	8.296000	1009.611023	-0.280000	0.634375	-0.240625
5.490000	6.466000	1015.101013	-0.166250	0.411250	-0.214375
2.440000	8.540000	1016.260010	-0.096250	0.280000	-0.306250
6.283000	8.906000	1012.234009	-0.140000	0.455000	-0.249375
1.464000	10.858000	1018.395020	-0.315000	0.520625	-0.249375
7.503000	8.784000	1014.307983	-0.275625	0.363125	-0.332500
1.037000	9.272000	1014.796021	-0.091875	0.328125	-0.336875
0.488000	11.224000	1016.504028	-0.231875	0.511875	-0.319375
9.699000	10.126000	1015.406006	-0.288750	0.691250	-0.231875
4.880000	11.956000	1016.015991	-0.175000	0.468125	-0.258125
6.405000	4.758000	1012.600037	-0.455000	0.713125	-0.310625
7.442000	7.991000	1014.552002	-0.494375	0.546875	-0.288750
5.978000	12.017000	1012.112000	-0.249375	0.490000	-0.253750
7.442000	5.917000	1012.721985	-0.078750	0.463750	-0.170625
5.734000	5.246000	1017.174988	-0.306250	0.468125	-0.157500
5.246000	4.758000	1013.210022	-0.196875	0.713125	-0.258125
6.466000	8.601000	1013.575989	-0.118125	0.485625	-0.258125
2.440000	8.174000	1014.552002	-0.170625	0.297500	-0.170625
3.172000	8.052000	1015.406006	-0.310625	0.542500	-0.210000
4.392000	8.296000	1017.114014	-0.266875	0.472500	-0.301875
6.710000	6.100000	1015.893982	-0.315000	0.336875	-0.175000
-0.549000	8.845000	1015.406006	-0.398125	0.651875	-0.231875
1.708000	7.808000	1015.528015	-0.363125	0.577500	-0.315000
5.307000	5.856000	1007.903015	-0.249375	0.450625	-0.249375
1.830000	10.187000	1015.955017	-0.140000	0.402500	-0.201250
2.928000	4.087000	1013.820007	-0.218750	0.363125	-0.280000
4.636000	7.503000	1011.746033	-0.428750	0.612500	-0.275625
0.610000	5.856000	1016.199036	-0.258125	0.503125	-0.266875
4.819000	6.344000	1013.210022	-0.096250	0.516250	-0.266875
6.893000	5.856000	1007.658997	-0.183750	0.520625	-0.240625
1.647000	6.222000	1011.197021	-0.135625	0.446250	-0.210000
12.688000	12.871000	1008.330017	-0.485625	0.507500	-0.179375
14.152000	9.638000	1009.549988	-0.415625	0.520625	-0.218750
13.786000	15.677000	1008.208008	-0.406875	0.669375	-0.157500
18.726999	12.932000	1010.770020	-0.332500	0.546875	-0.214375
15.738000	6.283000	1007.963989	-0.148750	0.328125	-0.205625
11.346000	6.710000	1004.548035	-0.008750	0.201250	-0.140000
15.311000	8.723001	1005.890015	-0.188125	0.498750	-0.297500
18.483000	11.346000	1010.221008	-0.271250	0.647500	-0.227500
12.322001	9.455000	1009.306030	-0.201250	0.297500	-0.306250
9.638000	3.477000	1010.281982	-0.175000	0.323750	-0.284375
12.200000	10.187000	1008.574036	-0.358750	0.441875	-0.240625
9.760000	2.501000	1008.574036	-0.415625	0.647500	-0.135625
13.359000	6.649000	1013.393005	-0.227500	0.498750	-0.074375
8.174000	0.549000	1011.502014	-0.406875	0.402500	-0.065625
6.466000	7.259000	1011.380005	-0.297500	0.441875	0.166250
18.056000	19.764000	1008.085999	-0.332500	0.586250	0.183750
20.557001	24.705000	1012.416992	-0.183750	0.468125	-0.135625
8.601000	-1.159000	1009.671997	-0.161875	0.564375	-0.258125
16.896999	14.518001	1009.671997	-0.288750	0.507500	-0.297500
2.928000	17.323999	1010.526001	-0.459375	0.704375	-0.560000
8.601000	12.444000	1012.478027	-0.538125	0.796250	-0.284375
23.912001	7.076000	1009.306030	-0.459375	0.678125	-0.511875
8.540000	5.368000	1013.393005	-0.306250	0.660625	-0.743750
-2.989000	8.113000	1011.746033	-0.196875	0.481250	-0.415625
6.954000	13.725000	1010.648010	-0.336875	0.538125	-0.402500
16.775000	5.795000	1010.770020	-0.218750	0.533750	-0.625625
13.542000	9.333000	1009.428040	-0.218750	0.472500	-0.498750
11.773000	7.930000	1010.892029	-0.231875	0.577500	-0.301875
18.605000	5.246000	1005.645996	-0.144375	0.271250	-0.358750
13.542000	4.758000	1013.393005	-0.218750	0.424375	-0.253750
4.209000	9.211000	1010.770020	-0.288750	0.568750	-0.262500
13.725000	10.248000	1011.624023	-0.258125	0.726250	-0.271250
15.494000	13.969000	1008.452026	-0.297500	0.511875	-0.455000
12.078000	8.357000	1009.794006	-0.223125	0.385000	-0.481250
4.941000	4.026000	1011.867981	-0.192500	0.476875	-0.503125
9.699000	-4.331000	1007.231995	-0.341250	0.713125	-0.345625
23.058001	12.932000	1011.197021	-0.472500	0.809375	-0.091875
6.405000	17.995001	1011.867981	-0.135625	0.428750	-0.520625
8.845000	4.758000	1014.613037	-0.450625	0.704375	-0.573125
9.516000	0.732000	1010.892029	-0.420000	0.555625	-0.345625
7.198000	9.333000	1010.648010	-0.301875	0.533750	-0.284375
5.246000	4.636000	1010.403992	-0.118125	0.411250	-0.179375
8.357000	6.344000	1014.613037	-0.328125	0.603750	-0.035000
13.115000	8.967000	1012.721985	-0.336875	0.525000	-0.074375
12.200000	13.603000	1011.380005	-0.336875	0.686875	-0.153125
7.930000	5.673000	1009.306030	-0.205625	0.638750	-0.231875
20.801001	10.431000	1011.624023	-0.258125	0.428750	-0.070000
7.320000	8.540000	1011.746033	-0.293125	0.555625	-0.070000
9.150001	17.263000	1014.613037	-0.315000	0.603750	-0.118125
14.457000	12.200000	1012.112000	-0.446250	0.678125	-0.223125
11.712000	11.590000	1008.208008	-0.315000	0.590625	-0.393750
16.165001	11.590000	1005.890015	-0.214375	0.507500	-0.363125
9.577000	18.361000	1010.830994	-0.223125	0.542500	-0.459375
14.213000	16.836000	1018.517029	-0.236250	0.625625	-0.695625
14.518001	14.518001	1007.171021	0.087500	0.310625	-0.756875
19.093000	17.080000	1007.598022	-0.096250	0.389375	-1.163750
10.492001	0.061000	1012.661011	-0.341250	0.678125	-1.115625
9.028000	-5.795000	1007.049011	-0.201250	0.586250	-0.857500
13.237000	-1.403000	1007.231995	-0.214375	0.354375	-0.774375
10.492001	14.152000	1009.794006	-0.192500	0.214375	-0.748125
8.052000	11.102000	1007.963989	-0.310625	0.511875	-0.857500
0.671000	3.355000	1008.085999	-0.245000	0.459375	-0.813750
5.673000	-0.122000	1010.038025	-0.371875	0.555625	-0.490000
3.660000	1.342000	1011.867981	-0.262500	0.538125	-0.459375
25.437000	5.551000	1015.101013	-0.245000	0.481250	-0.341250
1.769000	9.394000	1009.855042	-0.498750	0.463750	-0.091875
6.527000	16.896999	1008.695984	-0.336875	0.599375	-0.288750
12.749001	7.991000	1007.598022	-0.179375	0.441875	-0.363125
20.191000	5.978000	1012.783020	-0.249375	0.358750	-0.227500
10.553000	13.359000	1011.624023	-0.350000	0.564375	-0.266875
3.599000	11.956000	1016.931030	-0.332500	0.634375	-0.437500
10.309000	9.638000	1010.708984	-0.275625	0.634375	-0.363125
13.847000	7.564000	1010.038025	-0.214375	0.428750	-0.205625
13.298000	5.612000	1010.892029	-0.310625	0.568750	-0.266875
6.771000	12.139000	1009.306030	-0.179375	0.511875	-0.310625
13.847000	2.257000	1008.940002	-0.306250	0.835625	-0.323750
14.030000	2.318000	1010.160034	-0.183750	0.494375	-0.223125
7.625000	6.771000	1011.380005	-0.218750	0.389375	-0.231875
13.359000	11.895000	1010.526001	-0.122500	0.231875	-0.170625
7.808000	7.930000	1013.148987	-0.175000	0.503125	-0.258125
1.647000	7.442000	1011.502014	-0.415625	0.678125	-0.420000
9.943000	2.440000	1009.794006	-0.398125	0.730625	-0.406875
6.954000	10.309000	1013.393005	-0.376250	0.533750	-0.310625
5.124000	7.686000	1012.478027	-0.332500	0.376250	-0.262500
6.527000	10.248000	1010.403992	-0.183750	0.542500	-0.345625
5.978000	0.061000	1012.356018	-0.210000	0.625625	-0.363125
11.895000	4.453000	1011.257996	-0.319375	0.748125	-0.175000
7.198000	3.782000	1014.247009	-0.266875	0.533750	-0.157500
16.042999	16.958000	1012.234009	-0.293125	0.463750	-0.131250
11.102000	11.956000	1011.257996	-0.376250	0.398125	-0.214375
8.296000	5.551000	1009.062012	-0.332500	0.555625	-0.253750
8.906000	3.782000	1013.148987	-0.345625	0.643125	-0.393750
3.599000	3.050000	1011.624023	-0.288750	0.481250	-0.371875
5.795000	15.616000	1010.160034	-0.350000	0.673750	-0.227500
4.331000	4.392000	1013.148987	-0.183750	0.350000	-0.223125
8.967000	5.856000	1014.186035	-0.332500	0.529375	-0.166250
9.882000	3.172000	1013.820007	-0.345625	0.577500	-0.161875
11.346000	10.309000	1014.186035	-0.196875	0.437500	-0.126875
18.483000	11.834001	1012.966003	-0.153125	0.406875	-0.253750
16.592001	14.579000	1013.820007	-0.345625	0.612500	-0.503125
2.928000	4.575000	1011.502014	-0.249375	0.686875	-0.450625
2.440000	4.270000	1011.502014	-0.061250	0.323750	-0.258125
12.139000	8.967000	1013.332031	-0.065625	0.358750	-0.205625
7.808000	11.590000	1012.356018	-0.231875	0.525000	-0.210000
6.954000	4.148000	1011.257996	-0.345625	0.511875	-0.210000
5.124000	7.137000	1009.306030	-0.188125	0.315000	-0.223125
10.675000	10.431000	1014.247009	-0.240625	0.463750	-0.157500
10.736000	11.712000	1013.942017	-0.319375	0.437500	-0.223125
10.126000	2.623000	1011.257996	-0.367500	0.560000	-0.363125
15.555000	7.381000	1007.476013	-0.100625	0.363125	-0.275625
11.834001	11.041000	1010.343018	-0.091875	0.437500	-0.201250
15.677000	17.141001	1017.296997	-0.245000	0.691250	-0.455000
0.610000	-2.440000	1009.611023	-0.201250	0.616875	-0.406875
9.516000	18.666000	1014.125000	-0.218750	0.415625	-0.249375
0.427000	7.259000	1011.867981	-0.245000	0.577500	-0.354375
13.664001	2.806000	1006.866028	-0.196875	0.468125	-0.214375
8.113000	5.185000	1011.684998	-0.341250	0.568750	-0.148750
10.004000	12.383000	1009.062012	-0.323750	0.516250	-0.223125
9.028000	16.531000	1013.393005	-0.179375	0.507500	-0.166250
7.442000	4.087000	1012.356018	-0.043750	0.389375	-0.258125
8.784000	2.318000	1012.234009	-0.376250	0.678125	-0.402500
8.174000	10.187000	1013.697998	-0.463750	0.695625	-0.223125
12.017000	21.228001	1015.040039	-0.376250	0.568750	-0.231875
-3.904000	-13.603000	1011.807007	-0.301875	0.555625	-0.266875
20.069000	9.333000	1010.281982	-0.350000	0.476875	-0.039375
11.529000	26.108000	1013.759033	-0.258125	0.463750	-0.166250
-0.183000	14.823000	1014.064026	-0.179375	0.494375	-0.341250
12.322001	-0.732000	1008.513000	-0.192500	0.555625	-0.214375
16.775000	5.063000	1013.515015	-0.350000	0.564375	-0.332500
6.039000	9.455000	1008.330017	-0.284375	0.376250	-0.201250
14.091001	13.725000	1013.880981	-0.140000	0.328125	-0.236250
14.030000	5.795000	1009.916016	-0.415625	0.621250	-0.367500
-1.037000	-6.832000	1014.002991	-0.398125	0.774375	-0.336875
14.030000	11.895000	1011.502014	-0.253750	0.752500	0.035000
10.492001	19.459000	1014.613037	-0.179375	0.503125	-0.231875
3.965000	6.344000	1011.380005	-0.087500	0.385000	-0.380625
9.089000	3.416000	1011.380005	-0.170625	0.485625	-0.170625
12.017000	1.586000	1013.820007	-0.345625	0.546875	-0.236250
10.370000	13.054000	1012.112000	-0.336875	0.573125	-0.275625
12.993000	10.004000	1008.452026	-0.236250	0.581875	-0.284375
16.042999	12.200000	1017.541016	-0.105000	0.450625	-0.402500
5.551000	-5.490000	1005.463013	-0.096250	0.446250	-0.433125
12.505000	17.690001	1015.345032	-0.341250	0.608125	-0.026250
14.030000	23.607000	1011.867981	-0.183750	0.612500	-0.170625
13.664001	8.662000	1009.306030	-0.074375	0.599375	-0.406875
11.468000	-1.281000	1007.476013	-0.166250	0.735000	-0.288750
7.564000	6.649000	1008.330017	-0.201250	0.568750	-0.218750
8.540000	15.189000	1011.075012	-0.315000	0.656250	-0.210000
7.076000	8.113000	1013.088013	-0.135625	0.415625	-0.336875
12.139000	-2.379000	1006.439026	-0.170625	0.463750	-0.258125
18.483000	13.786000	1010.098999	-0.341250	0.507500	-0.236250
3.294000	5.978000	1011.867981	-0.310625	0.612500	-0.205625
12.993000	10.309000	1011.502014	-0.201250	0.376250	-0.253750
10.858000	6.832000	1015.345032	-0.297500	0.577500	-0.459375
9.028000	8.662000	1011.380005	-0.227500	0.520625	-0.310625
11.468000	6.710000	1010.281982	-0.113750	0.468125	-0.341250
8.052000	6.222000	1006.377991	-0.100625	0.350000	-0.280000
13.847000	14.579000	1012.539001	-0.358750	0.564375	-0.323750
9.028000	10.126000	1011.014038	-0.332500	0.476875	-0.354375
8.906000	5.612000	1016.320984	-0.140000	0.284375	-0.358750
7.076000	12.261000	1010.587036	-0.148750	0.520625	-0.341250
11.712000	10.126000	1012.600037	-0.157500	0.560000	-0.231875
13.542000	13.115000	1010.892029	-0.288750	0.533750	-0.301875
10.248000	7.808000	1008.695984	-0.371875	0.813750	-0.266875
12.871000	8.784000	1010.648010	-0.350000	0.533750	-0.297500
11.102000	12.261000	1008.208008	-0.135625	0.376250	-0.192500
13.542000	12.078000	1010.038025	-0.192500	0.389375	-0.245000
10.370000	6.954000	1010.892029	-0.393750	0.516250	-0.380625
11.102000	4.026000	1007.354004	-0.380625	0.568750	-0.288750
14.579000	19.520000	1023.335999	-0.293125	0.428750	-0.371875
-1.464000	7.747000	1007.963989	-0.245000	0.546875	-0.350000
24.095001	20.130001	1009.428040	-0.284375	0.424375	-0.275625
4.148000	3.416000	1010.648010	-0.363125	0.516250	-0.398125
14.640000	3.660000	1006.744019	-0.253750	0.520625	-0.262500
8.967000	6.527000	1010.465027	-0.319375	0.560000	-0.328125
4.636000	8.296000	1011.135986	-0.481250	0.476875	-0.271250
11.407001	9.150001	1011.746033	-0.245000	0.595000	-0.201250
18.605000	8.418000	1015.467041	-0.161875	0.498750	-0.231875
12.139000	7.686000	1011.624023	-0.236250	0.533750	-0.301875
11.834001	8.296000	1007.476013	-0.459375	0.634375	-0.231875
4.331000	8.723001	1010.648010	-0.188125	0.520625	-0.336875
12.139000	4.026000	1011.502014	-0.350000	0.660625	-0.280000
16.165001	18.788000	1013.820007	-0.284375	0.529375	-0.389375
6.039000	-1.464000	1008.330017	-0.017500	0.507500	-0.293125
10.797000	11.712000	1007.963989	-0.157500	0.385000	-0.056875
14.823000	13.542000	1010.221008	-0.301875	0.490000	-0.183750
12.566000	10.736000	1009.184021	-0.258125	0.503125	-0.218750
14.518001	8.784000	1006.622009	-0.223125	0.525000	-0.091875
11.346000	7.320000	1007.963989	-0.170625	0.406875	-0.319375
7.076000	12.261000	1013.575989	-0.039375	0.371875	-0.428750
15.311000	9.028000	1010.648010	-0.385000	0.568750	-0.253750
12.078000	8.174000	1013.393005	-0.376250	0.700000	-0.319375
4.697000	8.540000	1007.536987	-0.341250	0.704375	-0.315000
11.285000	11.529000	1009.916016	-0.236250	0.533750	-0.275625
15.921000	14.457000	1011.502014	-0.240625	0.516250	-0.341250
5.917000	2.013000	1010.526001	-0.328125	0.590625	-0.446250
10.675000	10.553000	1012.112000	-0.249375	0.511875	-0.205625
12.444000	13.237000	1011.989990	-0.166250	0.424375	-0.166250
10.492001	10.980000	1008.817993	-0.315000	0.533750	-0.201250
12.078000	0.305000	1012.112000	-0.315000	0.494375	-0.166250
10.492001	7.503000	1010.648010	-0.284375	0.616875	-0.245000
10.004000	11.773000	1011.989990	-0.437500	0.673750	-0.262500
7.320000	10.248000	1014.734985	-0.406875	0.682500	-0.249375
11.773000	6.832000	1010.648010	-0.301875	0.721875	-0.358750
8.662000	5.124000	1014.125000	-0.297500	0.713125	-0.437500
6.344000	3.172000	1014.429993	-0.293125	0.551250	-0.301875
6.710000	6.771000	1008.147034	-0.319375	0.542500	-0.297500
6.954000	10.187000	1011.929016	-0.271250	0.669375	-0.301875
12.261000	13.969000	1011.257996	-0.240625	0.586250	-0.406875
6.466000	-0.427000	1011.746033	-0.275625	0.590625	-0.258125
11.651000	8.845000	1010.770020	-0.253750	0.503125	-0.227500
5.673000	10.248000	1011.135986	-0.109375	0.332500	-0.245000
17.202000	14.213000	1008.085999	-0.091875	0.455000	-0.196875
12.322001	7.503000	1010.038025	-0.275625	0.621250	-0.319375
8.296000	5.490000	1010.526001	-0.376250	0.599375	-0.310625
12.993000	12.871000	1008.940002	-0.245000	0.424375	-0.157500
9.882000	12.078000	1012.905029	-0.131250	0.389375	-0.210000
10.736000	7.198000	1011.380005	-0.223125	0.503125	-0.398125
9.150001	8.723001	1013.027039	-0.183750	0.428750	-0.262500
9.394000	10.126000	1010.770020	-0.157500	0.288750	-0.275625
13.481000	11.468000	1012.478027	-0.293125	0.446250	-0.310625
8.662000	4.331000	1013.332031	-0.424375	0.564375	-0.288750
8.174000	7.381000	1005.707031	-0.214375	0.433125	-0.336875
13.847000	10.187000	1013.515015	-0.083125	0.310625	-0.315000
12.688000	5.490000	1011.380005	-0.135625	0.341250	-0.315000
11.956000	7.198000	1009.671997	-0.398125	0.643125	-0.288750
6.649000	5.856000	1012.173035	-0.441875	0.752500	-0.319375
12.749001	9.760000	1008.085999	-0.135625	0.433125	-0.323750
12.139000	6.954000	1014.613037	-0.275625	0.665000	-0.275625
11.346000	10.309000	1014.307983	-0.275625	0.643125	-0.288750
6.710000	9.394000	1012.478027	-0.210000	0.328125	-0.227500
8.723001	6.222000	1012.600037	-0.354375	0.520625	-0.236250
10.492001	6.222000	1013.575989	-0.380625	0.538125	-0.293125
7.076000	8.845000	1011.502014	-0.271250	0.481250	-0.345625
12.993000	6.344000	1010.160034	-0.109375	0.293125	-0.218750
6.649000	11.895000	1014.734985	-0.021875	0.196875	-0.214375
6.832000	8.906000	1010.770020	-0.218750	0.393750	-0.153125
5.124000	8.296000	1010.770020	-0.100625	0.455000	-0.284375
8.357000	9.516000	1011.257996	0.013125	0.345625	-0.310625
6.588000	6.222000	1013.820007	-0.070000	0.319375	-0.293125
1.830000	6.710000	1010.160034	-0.188125	0.415625	-0.140000
8.235000	9.821000	1011.746033	-0.288750	0.669375	-0.227500
9.272000	10.858000	1010.526001	-0.328125	0.647500	-0.332500
11.651000	1.525000	1013.880981	-0.358750	0.616875	-0.341250
7.076000	5.063000	1008.330017	-0.315000	0.595000	-0.231875
14.579000	10.187000	1015.467041	-0.253750	0.555625	-0.214375
4.636000	9.516000	1007.720032	-0.144375	0.420000	-0.188125
11.895000	2.867000	1013.759033	-0.170625	0.520625	-0.245000
3.355000	3.660000	1010.403992	-0.205625	0.385000	-0.411250
5.917000	10.919000	1015.345032	-0.249375	0.441875	-0.323750
11.163000	7.930000	1012.843994	-0.231875	0.476875	-0.288750
1.647000	13.237000	1010.892029	-0.406875	0.494375	-0.227500
8.723001	9.272000	1014.734985	-0.258125	0.411250	-0.249375
3.233000	4.392000	1011.746033	-0.148750	0.420000	-0.205625
13.908000	10.187000	1014.247009	-0.266875	0.647500	-0.214375
7.381000	4.209000	1011.135986	-0.275625	0.546875	-0.258125
12.688000	9.882000	1011.989990	-0.078750	0.424375	-0.223125
12.688000	6.344000	1011.380005	-0.157500	0.389375	-0.293125
10.614000	5.246000	1012.966003	-0.363125	0.468125	-0.271250
8.174000	8.845000	1009.794006	-0.529375	0.599375	-0.210000
10.675000	9.882000	1009.549988	-0.415625	0.756875	-0.341250
7.076000	8.906000	1009.794006	-0.105000	0.446250	-0.393750
10.065001	6.832000	1010.648010	-0.144375	0.336875	-0.284375
9.638000	12.627000	1010.403992	-0.406875	0.498750	-0.218750
9.638000	4.819000	1012.112000	-0.376250	0.520625	-0.236250
12.261000	8.479000	1013.697998	-0.078750	0.341250	-0.223125
8.540000	15.555000	1012.600037	-0.070000	0.463750	-0.218750
11.651000	6.527000	1011.746033	-0.363125	0.748125	-0.231875
7.198000	5.978000	1011.624023	-0.341250	0.800625	-0.284375
10.553000	10.187000	1013.454041	-0.398125	0.682500	-0.266875
9.394000	8.784000	1014.064026	-0.258125	0.411250	-0.205625
8.906000	10.126000	1011.867981	-0.113750	0.354375	-0.113750
12.627000	16.287001	1015.467041	-0.253750	0.433125	-0.227500
6.649000	7.015000	1010.403992	-0.376250	0.420000	-0.389375
2.196000	9.699000	1013.270996	-0.328125	0.595000	-0.240625
8.601000	11.895000	1016.442993	-0.153125	0.546875	-0.253750
44.774002	144.630997	1018.760986	0.883750	-2.213750	-3.093125
-16.958000	40.564999	756.033997	0.883750	-2.213750	0.000000
-24.583000	-128.466003	1084.885010	1.071875	0.280000	26.000626
32.695999	12.566000	1054.567993	0.853125	0.560000	8.601250
14.152000	12.200000	1002.718018	0.004375	0.581875	-0.096250
8.357000	7.686000	978.257019	0.083125	0.336875	-0.087500
16.896999	8.052000	1010.281982	-0.052500	0.406875	-0.358750
13.054000	15.982000	998.630981	-5.788125	-6.807500	1.417500
8.296000	-2.318000	990.700989	-0.288750	0.253750	-0.262500
5.490000	35.806999	971.973999	-1.260000	-0.035000	-0.227500
16.226000	8.113000	1014.064026	-0.660625	0.463750	-0.227500
18.300001	11.773000	1008.513000	-0.280000	0.586250	-0.336875
28.914000	0.793000	998.630981	-0.161875	0.315000	-0.341250
9.638000	8.357000	1008.635010	-0.236250	0.590625	-0.201250
17.750999	8.418000	1009.671997	-0.385000	0.424375	-0.126875
13.298000	5.490000	1006.744019	-0.214375	0.494375	-0.126875
14.884000	7.686000	1010.465027	-0.175000	0.625625	-0.284375
22.448000	-59.109001	986.492004	4.886875	-0.704375	-7.800625
-3.111000	50.264000	1010.587036	5.053125	-0.424375	-0.485625
344.467010	-3.843000	1061.704956	1.141875	0.376250	14.122500
17.934000	6.649000	1010.648010	-0.660625	0.551250	4.147500
14.762000	-8.662000	1006.134033	0.385000	0.511875	-1.785000
527.039978	-95.586998	965.080994	-0.402500	0.490000	-16.528749
172.630005	-69.784004	1103.489990	-3.438750	0.507500	-4.038125
-359.838989	-68.685997	982.283020	1.264375	1.583750	49.787498
366.365997	91.805000	907.375000	-7.984375	-1.973125	14.153125
-21.410999	26.291000	1039.744995	0.835625	-1.391250	-19.341875
-72.101997	53.924000	998.509033	-1.754375	3.355625	2.751875
-452.315002	-316.834015	1052.677002	-1.461250	1.675625	17.158751
1049.443970	599.934998	1048.102051	0.074375	0.743750	-2.051875
232.837006	-4.392000	1005.341003	-1.111250	0.481250	-11.042500
120.292000	17.019001	995.703003	-2.156875	-1.141875	-6.435625
8.418000	20.191000	1032.791016	-1.793750	0.284375	-1.513750
-126.453003	-53.375000	1026.568970	1.128750	0.962500	11.287500
44.042000	-0.915000	1006.866028	-0.144375	0.643125	3.298750
105.712997	-20.496000	917.989014	-0.971250	0.507500	-13.715625
3.599000	7.320000	1008.085999	0.179375	0.503125	-3.841250
24.461000	-0.793000	1004.914001	-0.231875	0.516250	0.288750
13.481000	11.468000	1005.402039	-0.393750	0.542500	-0.078750
9.028000	11.346000	1012.173035	-0.157500	0.581875	-0.210000
9.028000	9.272000	1007.049011	-0.105000	0.634375	-0.188125
20.862000	1.403000	1008.695984	-0.043750	0.608125	-0.166250
13.115000	1.464000	1007.842041	-0.175000	0.476875	-0.415625
6.527000	11.834001	1014.491028	-0.371875	0.371875	-0.315000
14.945000	13.664001	1011.135986	-0.437500	0.301875	-0.210000
13.481000	2.989000	1006.866028	-0.363125	0.826875	-0.131250
5.795000	13.359000	1012.416992	-0.214375	0.682500	-0.245000
14.335000	10.492001	1012.112000	-0.188125	0.463750	-0.341250
12.444000	6.832000	1011.380005	-0.280000	0.354375	-0.367500
15.799000	3.050000	1011.257996	-0.345625	0.420000	-0.293125
9.577000	0.366000	1014.734985	-0.328125	0.437500	-0.301875
8.662000	4.331000	1011.257996	-0.354375	0.682500	-0.223125
10.675000	12.017000	1007.476013	-0.048125	0.656250	-0.188125
11.590000	2.135000	1011.441040	-0.061250	0.525000	-0.227500
10.187000	8.967000	1008.574036	-0.249375	0.595000	-0.468125
17.507000	5.002000	1014.613037	-0.100625	0.420000	-0.446250
9.089000	9.211000	1012.966003	-0.210000	0.472500	-0.796250
8.662000	5.856000	1012.356018	-0.183750	0.389375	-1.163750
-108.763000	27.755001	1009.549988	-0.091875	0.437500	-2.126250
-28.853001	8.906000	1009.794006	0.271250	0.415625	-0.756875
-23.851000	22.570000	1006.988037	0.966875	0.599375	6.063750
19.276001	15.555000	989.054016	0.997500	0.818125	24.723125
165.005005	50.202999	1006.744019	1.614375	1.159375	14.109375
47.275002	-16.348000	1050.114990	-0.481250	0.818125	-1.080625
-33.428001	21.655001	1012.905029	-1.456875	0.245000	-8.631875
3.233000	7.808000	1012.600037	-1.251250	0.625625	-0.376250
1.586000	18.788000	1012.966003	-0.218750	0.586250	3.806250
3.294000	5.734000	1003.267029	0.577500	0.682500	7.538125
22.753000	-0.671000	1009.489014	0.122500	0.446250	3.115000
23.424000	-14.396000	1010.648010	-0.148750	0.354375	-2.187500
14.945000	-8.113000	1021.750000	-0.813750	0.621250	-8.010625
2.623000	7.442000	1007.109985	-1.242500	0.441875	-6.234375
-7.259000	-0.915000	1021.627991	-0.643125	0.315000	-1.666875
32.818001	-12.627000	1010.770020	0.262500	0.354375	5.451250
-1.220000	-6.039000	1080.614990	0.643125	0.511875	23.625000
125.721001	-15.799000	1051.701050	0.319375	0.354375	15.583750
5.551000	3.599000	1048.102051	-1.526875	0.455000	-1.802500
6.344000	-27.694000	1078.846069	-1.649375	0.223125	-11.729375
-9.150001	-7.503000	1008.513000	-0.927500	0.472500	-9.016875
-11.590000	16.896999	1025.898071	-0.818125	0.538125	-2.511250
-41.114002	73.016998	1000.827026	2.594375	0.363125	11.480000
25.193001	-39.284000	999.057983	1.903125	-0.691250	14.796250
10.736000	5.490000	1003.083984	-0.380625	0.231875	-0.787500
31.293001	1.708000	1022.421021	-0.774375	0.525000	-9.686250
-31.842001	-27.694000	995.703003	-0.940625	0.380625	-10.416875
104.676003	101.808998	1094.645020	-0.083125	0.660625	-10.364375
9.516000	12.993000	1014.429993	-0.341250	0.901250	-3.241875
-10.248000	31.415001	1013.210022	0.074375	0.708750	0.896875
-25.254000	54.595001	973.377014	1.032500	0.503125	24.425625
14.945000	-16.287001	1010.098999	1.653750	-1.465625	11.869375
19.825001	-2.318000	997.228027	-0.035000	-0.048125	-0.140000
-53.497002	28.121000	1028.947998	-1.491875	0.669375	-4.865000
369.476990	-149.511002	969.717041	-0.765625	1.312500	-16.375626
-449.447998	180.742996	1110.932007	-0.638750	0.441875	-37.690624
15.372000	-7.686000	988.200012	-1.894375	0.975625	-9.541875
9.455000	12.261000	1014.674011	-0.735000	0.857500	0.437500
15.799000	5.917000	1015.283997	-0.122500	0.665000	-0.201250
-2.562000	2.318000	1015.283997	-0.091875	0.385000	-0.363125
-0.122000	5.551000	1010.403992	-0.039375	0.564375	-0.315000
2.867000	8.235000	1009.549988	0.105000	0.660625	-0.253750
5.002000	4.880000	1014.125000	0.035000	0.555625	-0.350000
4.514000	8.113000	1011.380005	-0.371875	0.756875	-0.280000
8.723001	11.041000	1014.491028	-0.455000	0.931875	-0.319375
4.636000	2.623000	1017.296997	-0.616875	0.923125	-0.332500
7.381000	3.172000	1012.478027	-0.586250	0.783125	-0.258125
4.026000	3.050000	1013.697998	-0.490000	0.678125	-0.266875
1.098000	8.113000	1013.697998	-0.463750	0.673750	-0.218750
5.795000	5.002000	1011.257996	-0.179375	0.577500	-0.275625
2.806000	2.074000	1015.588989	-0.275625	0.621250	-0.319375
1.830000	6.283000	1014.552002	-0.170625	0.739375	-0.297500
15.982000	6.100000	1008.208008	-0.350000	0.573125	-0.214375
15.860001	7.564000	1004.791992	-0.231875	0.402500	-0.323750
9.455000	4.880000	1010.708984	-0.214375	0.249375	-0.284375
15.189000	2.806000	1007.720032	-0.332500	0.354375	-0.266875
15.982000	8.723001	1004.548035	-0.371875	0.638750	-0.336875
18.300001	2.867000	1008.025024	-0.153125	0.595000	-0.319375
17.080000	7.625000	1010.343018	-0.144375	0.424375	-0.240625
21.167000	5.856000	1010.526001	-0.052500	0.271250	-0.253750
20.130001	6.100000	1004.242981	-0.126875	0.153125	-0.363125
24.461000	5.490000	1006.866028	0.000000	0.301875	-0.350000
21.228001	3.660000	1007.720032	-0.245000	0.468125	-0.341250
18.910000	9.577000	1010.098999	-0.253750	0.332500	-0.301875
14.396000	8.662000	1004.609009	-0.262500	0.428750	-0.284375
21.045000	12.627000	1008.025024	-0.175000	0.507500	-0.275625
15.494000	8.052000	1009.062012	-0.280000	0.481250	-0.367500
10.431000	12.505000	1005.280029	-0.188125	0.638750	-0.297500
11.468000	9.516000	1005.890015	-0.218750	0.503125	-0.262500
17.750999	6.954000	1009.855042	-0.441875	0.546875	-0.319375
15.982000	6.710000	1011.014038	-0.336875	0.428750	-0.157500
14.274000	11.285000	1006.500000	-0.258125	0.424375	-0.245000
12.322001	5.856000	1009.062012	-0.126875	0.511875	-0.262500
7.930000	8.967000	1013.515015	-0.118125	0.586250	-0.126875
13.359000	6.954000	1010.892029	-0.262500	0.647500	-0.100625
10.248000	36.844002	1025.410034	0.105000	0.778750	1.203125
11.590000	5.978000	1012.905029	-0.030625	0.336875	0.354375
10.248000	0.549000	1012.478027	-0.253750	0.542500	-0.070000
20.069000	0.122000	1017.419006	-0.393750	0.581875	0.686875
10.675000	11.224000	1012.112000	-0.236250	0.555625	0.196875
13.054000	2.318000	1012.478027	-0.196875	0.564375	0.809375
2.745000	6.039000	1009.549988	-0.140000	0.713125	-0.201250
10.675000	11.651000	1010.281982	-0.192500	0.485625	-0.253750
8.662000	7.198000	1013.027039	-0.140000	0.608125	-0.175000
8.662000	5.856000	1009.671997	-0.153125	0.726250	-0.179375
-3.233000	14.457000	1011.867981	0.008750	0.406875	0.437500
25.498001	186.843002	1018.639038	0.669375	-0.214375	24.491249
-36.722000	-138.714005	985.150024	20.807501	7.468125	37.292500
89.304001	-73.139000	1407.087036	6.916875	1.518125	6.584375
72.651001	-24.034000	1031.571045	0.380625	0.840000	22.802500
44.529999	9.516000	1026.874023	-0.135625	-2.900625	-16.961876
294.934998	47.763000	704.854980	0.503125	-0.577500	-11.484375
-119.133003	-6.649000	1010.770020	-1.054375	0.682500	-4.173750
7.320000	17.873001	1020.713013	-0.424375	0.341250	0.870625
47.396999	-18.422001	1000.765991	0.021875	0.393750	1.671250
-15.494000	37.758999	997.593994	-0.004375	1.295000	4.453750
67.039001	-68.807999	1455.155029	-5.503750	7.380625	16.590000
27.023001	-0.549000	794.158997	-0.065625	-1.763125	-6.860000
219.904999	120.169998	944.158020	0.612500	-1.841875	-1.688750
115.045998	62.341999	1033.889038	-1.404375	0.245000	-4.392500
-109.128998	33.855000	945.682983	-0.179375	0.866250	24.714375
-394.975006	-104.431999	951.783020	-1.071875	1.636250	16.747499
-46.542999	8.845000	1033.035034	0.126875	1.076250	15.054375
-117.181000	4.270000	712.541016	-8.023750	-2.651250	-6.418125
302.316010	41.663002	1132.770020	-3.005625	-0.030625	-26.328751
61.915001	-22.326000	1020.530029	0.214375	0.485625	-10.823750
89.059998	36.844002	980.330994	-1.203125	0.564375	6.125000
-349.407990	45.932999	1102.270020	-0.844375	0.214375	19.670000
10.553000	3.599000	1015.223022	-0.420000	0.581875	1.330000
14.823000	5.734000	1016.138000	0.004375	0.590625	0.253750
9.455000	7.991000	1015.528015	-0.122500	0.783125	-0.350000
0.305000	7.442000	1015.406006	-0.214375	0.455000	-0.446250
5.429000	0.183000	1014.064026	-0.214375	0.494375	-0.393750
9.577000	6.283000	1014.307983	-0.109375	0.284375	-0.455000
9.394000	9.699000	1014.796021	-0.253750	0.293125	-0.428750
4.514000	2.135000	1011.502014	-0.424375	0.520625	-0.529375
2.928000	4.270000	1013.880981	-0.275625	0.437500	-0.441875
6.710000	10.797000	1013.454041	-0.201250	0.546875	-0.385000
1.342000	5.673000	1013.820007	-0.070000	0.253750	-0.336875
7.991000	2.318000	1011.746033	-0.061250	0.446250	-0.253750
2.623000	7.625000	1014.002991	-0.096250	0.455000	-0.315000
2.196000	6.222000	1010.892029	-0.240625	0.476875	-0.218750
6.527000	7.076000	1014.247009	-0.026250	0.332500	-0.258125
3.172000	3.782000	1010.648010	-0.122500	0.468125	-0.332500
0.854000	7.259000	1011.014038	-0.354375	0.577500	-0.245000
9.699000	10.065001	1013.148987	-0.210000	0.621250	-0.306250
6.832000	6.588000	1012.966003	-0.170625	0.538125	-0.363125
-0.183000	4.270000	1014.856995	-0.280000	0.385000	-0.205625
12.078000	4.880000	1016.015991	-0.398125	0.507500	-0.105000
7.320000	9.821000	1012.478027	-0.319375	0.682500	-0.297500
2.562000	4.087000	1014.429993	-0.192500	0.643125	-0.332500
6.527000	6.100000	1014.429993	-0.122500	0.424375	-0.367500
8.052000	1.586000	1013.454041	0.000000	0.398125	-0.271250
9.272000	4.697000	1012.112000	0.030625	0.494375	-0.231875
6.588000	2.196000	1014.429993	-0.297500	0.840000	-0.315000
6.954000	1.830000	1014.186035	-0.231875	0.647500	-0.245000
4.636000	6.832000	1014.796021	-0.323750	0.341250	-0.214375
8.723001	2.562000	1011.380005	-0.192500	0.520625	-0.227500
4.636000	5.673000	1010.770020	-0.026250	0.533750	-0.214375
4.026000	8.113000	1015.955017	-0.087500	0.490000	-0.249375
1.708000	6.588000	1015.893982	-0.266875	0.533750	-0.266875
6.405000	5.856000	1018.212036	-0.310625	0.643125	-0.341250
-5.551000	0.061000	1014.552002	-0.516250	0.800625	-0.284375
-28.975000	5.185000	1006.561035	-0.726250	0.634375	0.030625
-467.015991	-235.033005	951.905029	1.001875	1.885625	-3.228750
-41.663002	-20.496000	679.723022	1.251250	1.098125	-25.830000
62.220001	-14.213000	1012.356018	-1.080625	0.385000	-2.585625
-8.357000	15.860001	1053.165039	0.503125	-0.083125	-8.981875
334.157990	27.572001	615.367981	-3.946250	6.216875	-2.051875
-32.390999	54.778000	1055.727051	-2.922500	5.070625	-3.530625
6.161000	4.880000	1013.637024	-2.025625	3.360000	1.811250
19.520000	8.967000	1017.906982	-1.596875	1.400000	1.308125
21.350000	-0.061000	1014.552002	0.105000	0.595000	-0.910000
14.335000	1.342000	1019.614990	0.879375	-0.883750	-5.193125
-12.383000	9.943000	1020.164001	-0.678125	0.017500	-3.053750
79.605003	6.710000	1009.428040	-0.743750	1.295000	-5.411875
-44.042000	58.499001	1002.778992	-0.783125	0.901250	-4.016250
4.636000	-1.037000	1014.186035	-0.507500	0.520625	-0.980000
13.603000	6.527000	1016.138000	0.043750	0.468125	-0.695625
6.527000	3.294000	1016.869995	0.008750	0.485625	-0.564375
108.640999	-25.620001	1015.772034	-0.039375	0.301875	-3.298750
83.875000	23.058001	1032.485962	-0.240625	0.498750	-0.879375
1.098000	1.769000	1017.723999	0.227500	0.686875	2.323125
-87.656998	-1.586000	1009.001038	-0.170625	0.704375	0.039375
-36.966000	-13.847000	1012.905029	-0.301875	0.468125	-1.356250
64.965004	14.030000	1009.671997	-0.214375	0.385000	-0.966875
14.030000	2.745000	1014.856995	-0.284375	0.468125	-0.354375
14.518001	-4.331000	1017.053040	-0.126875	0.271250	-0.004375
-1.098000	14.091001	1010.953003	-0.253750	0.560000	-3.202500
-4.392000	13.542000	1016.931030	-0.437500	0.393750	-3.552500
6.344000	11.590000	1014.307983	-0.319375	0.389375	-1.470000
7.076000	5.795000	1012.356018	-0.078750	0.380625	-1.067500
0.427000	8.296000	1014.186035	-0.126875	0.459375	-0.323750
2.074000	-0.305000	1018.151001	-0.118125	0.682500	-0.336875
90.767998	70.333000	986.796997	0.214375	0.507500	1.732500
-1.708000	3.660000	1015.528015	-0.017500	0.468125	0.385000
5.185000	11.285000	1016.747986	-0.096250	0.533750	-0.109375
7.869000	12.688000	1011.502014	-0.367500	0.529375	-0.205625
9.272000	11.834001	1009.306030	-0.398125	0.726250	-0.376250
2.379000	3.477000	1013.515015	-0.175000	0.520625	-0.288750
5.429000	1.708000	1015.040039	-0.148750	0.393750	-0.376250
2.562000	10.187000	1013.575989	-0.332500	0.332500	-0.227500
2.074000	9.638000	1018.517029	-0.328125	0.415625	-0.192500
6.527000	7.320000	1017.968018	-0.284375	0.420000	-0.319375
-1.586000	11.529000	1012.600037	-0.105000	0.459375	-0.210000
2.135000	13.847000	1015.833008	-0.214375	0.616875	-0.109375
4.270000	9.028000	1017.846008	-0.336875	0.752500	-0.266875
1.952000	6.344000	1016.382019	-0.345625	0.778750	-0.315000
5.673000	2.684000	1013.820007	-0.223125	0.778750	-0.227500
8.113000	0.732000	1009.549988	-0.183750	0.581875	-0.135625
1.525000	8.601000	1015.345032	-0.380625	0.717500	-0.083125
7.747000	6.588000	1012.843994	-0.529375	0.761250	-0.148750
5.612000	12.993000	1015.833008	-0.262500	0.525000	-0.148750
0.183000	4.392000	1016.442993	-0.306250	0.630000	-0.280000
7.015000	7.747000	1017.236023	-0.280000	0.503125	-0.175000
4.758000	11.407001	1017.114014	-0.284375	0.625625	-0.170625
6.710000	13.054000	1015.283997	-0.380625	0.520625	-0.227500
1.464000	3.721000	1014.674011	-0.315000	0.468125	-0.293125
7.381000	3.782000	1012.234009	-0.253750	0.630000	-0.297500
-0.915000	8.601000	1015.710999	-0.280000	0.660625	-0.258125
-4.026000	13.359000	1012.843994	-0.358750	0.678125	-0.240625
0.549000	11.834001	1013.697998	-0.175000	0.665000	-0.131250
9.699000	-3.904000	1014.429993	-0.183750	0.476875	-0.096250
4.392000	19.459000	1013.820007	-0.332500	0.765625	-0.091875
6.893000	18.910000	1011.624023	-0.236250	0.590625	-0.393750
3.050000	-4.941000	1010.892029	-0.188125	0.608125	-0.485625
2.318000	-6.710000	1016.320984	-0.371875	0.730625	-0.245000
2.074000	8.540000	1015.893982	-0.223125	0.494375	-0.122500
4.148000	7.808000	1018.212036	-0.293125	0.415625	-0.218750
3.904000	5.124000	1011.684998	-0.157500	0.363125	-0.280000
10.797000	3.172000	1011.257996	0.083125	0.258125	-0.227500
5.856000	1.830000	1013.088013	-0.122500	0.231875	-0.240625
1.952000	14.091001	1014.307983	-0.227500	0.656250	-0.310625
-0.122000	10.614000	1013.697998	-0.367500	0.481250	-0.371875
3.233000	11.468000	1017.174988	-0.105000	0.402500	-0.455000
16.836000	7.076000	1009.489014	-0.323750	0.511875	-0.459375
7.747000	-2.379000	1013.515015	-0.245000	0.494375	-0.533750
0.671000	6.039000	1015.283997	-0.227500	0.577500	-0.332500
2.806000	10.431000	1016.747986	-0.214375	0.608125	-0.253750
3.904000	9.760000	1010.465027	-0.262500	0.695625	-0.389375
4.392000	6.710000	1013.148987	-0.144375	0.463750	-0.411250
5.368000	1.708000	1013.088013	-0.227500	0.503125	-0.306250
3.843000	9.821000	1016.199036	-0.231875	0.625625	-0.201250
5.368000	9.638000	1016.747986	-0.472500	0.888125	-0.288750
-0.915000	3.233000	1014.064026	-0.472500	0.748125	-0.262500
-2.196000	5.246000	1014.918030	-0.393750	0.761250	-0.105000
9.150001	5.734000	1013.820007	-0.437500	0.691250	-0.052500
13.969000	10.065001	1012.721985	-0.398125	0.529375	-0.192500
-0.610000	6.832000	1014.674011	-0.411250	0.511875	-0.205625
2.745000	-1.281000	1015.650024	-0.323750	0.402500	-0.218750
1.708000	5.307000	1012.234009	-0.398125	0.647500	-0.223125
6.771000	5.856000	1015.467041	-0.529375	0.717500	-0.271250
-1.403000	9.516000	1013.332031	-0.048125	0.568750	-0.271250
4.087000	5.490000	1013.210022	-0.205625	0.853125	-0.345625
4.148000	3.538000	1012.112000	-0.157500	0.695625	-0.297500
2.562000	3.416000	1014.674011	-0.275625	0.778750	-0.201250
1.708000	5.246000	1012.843994	-0.332500	0.551250	-0.223125
3.965000	9.577000	1014.307983	-0.100625	0.376250	-0.210000
8.113000	2.379000	1014.064026	-0.105000	0.463750	-0.319375
5.490000	9.333000	1013.942017	-0.100625	0.336875	-0.288750
4.148000	4.880000	1015.283997	-0.083125	0.328125	-0.398125
6.710000	5.490000	1011.746033	0.017500	0.301875	-0.266875
7.442000	9.699000	1013.697998	0.008750	0.376250	-0.284375
5.124000	7.808000	1013.942017	-0.052500	0.498750	-0.280000
-0.061000	5.246000	1013.454041	-0.231875	0.708750	-0.258125
-3.294000	5.734000	1015.650024	-0.266875	0.494375	-0.275625
2.623000	6.466000	1012.112000	-0.205625	0.490000	-0.350000
3.172000	5.612000	1013.942017	-0.183750	0.398125	-0.262500
7.381000	7.320000	1017.906982	-0.175000	0.310625	-0.336875
8.052000	2.196000	1011.197021	-0.328125	0.481250	-0.262500
1.647000	4.758000	1015.345032	-0.323750	0.494375	-0.288750
3.660000	3.477000	1015.161987	-0.280000	0.507500	-0.323750
6.649000	4.270000	1012.600037	-0.406875	0.634375	-0.288750
4.026000	5.124000	1011.380005	-0.148750	0.424375	-0.266875
1.098000	4.270000	1009.794006	-0.253750	0.301875	-0.236250
-0.366000	7.259000	1016.565002	-0.358750	0.406875	-0.236250
4.697000	7.076000	1013.575989	-0.166250	0.323750	-0.323750
5.124000	4.514000	1016.687012	-0.131250	0.485625	-0.223125
3.782000	7.625000	1017.601990	-0.236250	0.761250	-0.258125
6.039000	12.261000	1010.708984	-0.301875	0.673750	-0.336875
6.344000	4.941000	1014.429993	-0.096250	0.450625	-0.297500
6.527000	8.540000	1015.040039	-0.188125	0.700000	-0.258125
6.100000	3.538000	1012.966003	-0.288750	0.516250	-0.315000
2.562000	10.065001	1012.966003	-0.345625	0.490000	-0.293125
6.283000	6.588000	1012.112000	-0.385000	0.459375	-0.306250
3.172000	4.026000	1018.151001	-0.266875	0.262500	-0.266875
0.244000	7.503000	1015.040039	-0.275625	0.485625	-0.205625
2.562000	4.270000	1012.234009	-0.188125	0.669375	-0.253750
9.211000	5.124000	1014.856995	-0.341250	0.568750	-0.297500
4.148000	5.978000	1013.697998	-0.297500	0.301875	-0.315000
1.586000	8.784000	1013.210022	-0.288750	0.612500	-0.240625
7.137000	8.906000	1016.320984	-0.253750	0.503125	-0.310625
5.246000	2.501000	1004.609009	-0.214375	0.616875	-0.332500
4.148000	6.039000	999.424011	-0.350000	0.630000	-0.205625
4.514000	11.895000	1030.046021	-0.153125	0.450625	-0.201250
1.098000	6.832000	1012.112000	0.004375	0.573125	-0.218750
5.429000	3.538000	1012.112000	-0.280000	0.778750	-0.393750
2.806000	1.220000	1012.234009	-0.306250	0.673750	-0.271250
7.869000	9.455000	1015.833008	-0.245000	0.542500	-0.280000
1.891000	9.150001	1016.626038	-0.218750	0.608125	-0.297500
3.294000	3.538000	1011.746033	-0.231875	0.476875	-0.262500
1.586000	7.259000	1014.247009	-0.266875	0.520625	-0.262500
-1.708000	8.174000	1014.552002	-0.336875	0.726250	-0.214375
1.647000	2.623000	1019.005005	-0.354375	0.831250	-0.262500
6.405000	5.429000	1013.393005	-0.424375	0.765625	-0.240625
6.710000	6.832000	1012.843994	-0.328125	0.695625	-0.201250
4.026000	4.758000	1015.833008	-0.179375	0.476875	-0.210000
2.074000	5.856000	1013.942017	-0.236250	0.717500	-0.218750
3.416000	5.734000	1013.210022	-0.135625	0.411250	-0.288750
4.209000	11.407001	1014.552002	-0.253750	0.577500	-0.183750
6.893000	13.542000	1015.893982	-0.406875	0.669375	-0.166250
4.026000	8.784000	1014.552002	-0.293125	0.568750	-0.341250
5.978000	4.270000	1010.770020	-0.161875	0.363125	-0.315000
5.490000	3.904000	1013.148987	-0.131250	0.446250	-0.192500
4.148000	9.821000	1015.772034	-0.301875	0.529375	-0.201250
1.464000	12.078000	1015.040039	-0.284375	0.770000	-0.240625
2.562000	6.405000	1011.135986	-0.341250	0.621250	-0.341250
5.673000	1.464000	1013.210022	-0.293125	0.280000	-0.319375
7.686000	6.039000	1016.077026	-0.161875	0.577500	-0.231875
7.991000	8.906000	1013.575989	-0.140000	0.293125	-0.284375
2.013000	7.686000	1011.624023	-0.078750	0.205625	-0.231875
0.244000	1.281000	1009.916016	-0.061250	0.433125	-0.201250
4.941000	6.039000	1017.785034	-0.253750	0.468125	-0.350000
2.684000	10.065001	1015.772034	-0.157500	0.656250	-0.240625
-0.610000	4.087000	1015.528015	-0.433125	0.857500	-0.218750
6.771000	2.684000	1014.918030	-0.315000	0.796250	-0.328125
8.296000	7.503000	1016.626038	-0.424375	0.656250	-0.385000
5.612000	8.052000	1017.236023	-0.376250	0.393750	-0.367500
2.440000	7.686000	1011.502014	-0.245000	0.490000	-0.301875
2.440000	4.148000	1012.234009	-0.153125	0.183750	-0.297500
7.625000	7.015000	1012.721985	-0.105000	0.511875	-0.354375
4.148000	2.318000	1014.552002	-0.065625	0.682500	-0.227500
0.610000	6.771000	1012.843994	-0.157500	0.700000	-0.262500
5.673000	2.806000	1015.710999	-0.428750	0.700000	-0.210000
3.660000	4.148000	1011.380005	-0.297500	0.748125	-0.245000
6.161000	4.636000	1014.734985	-0.253750	0.581875	-0.328125
1.952000	5.490000	1012.478027	-0.118125	0.765625	-0.284375
6.161000	5.490000	1014.429993	-0.424375	0.542500	-0.354375
4.148000	3.904000	1010.892029	-0.161875	0.406875	-0.218750
7.259000	9.089000	1013.270996	-0.161875	0.441875	-0.288750
3.538000	7.930000	1012.843994	-0.218750	0.350000	-0.402500
6.039000	6.222000	1013.454041	-0.157500	0.577500	-0.297500
2.928000	7.076000	1013.454041	-0.371875	0.691250	-0.236250
3.782000	3.294000	1015.528015	-0.441875	0.608125	-0.214375
7.015000	12.383000	1014.674011	-0.301875	0.459375	-0.205625
3.050000	5.307000	1010.648010	-0.284375	0.546875	-0.293125
0.244000	6.588000	1015.833008	-0.258125	0.700000	-0.363125
3.843000	3.294000	1016.382019	0.013125	0.275625	-0.271250
1.525000	4.514000	1019.737000	-0.345625	0.756875	-0.297500
1.830000	9.699000	1016.138000	-0.078750	0.389375	-0.345625
7.869000	2.013000	1016.382019	-0.161875	0.433125	-0.284375
5.490000	5.429000	1016.260010	-0.109375	0.341250	-0.223125
2.318000	1.952000	1016.382019	-0.113750	0.301875	-0.249375
7.625000	9.455000	1013.454041	-0.179375	0.551250	-0.201250
-0.549000	2.501000	1016.442993	-0.091875	0.398125	-0.249375
5.795000	3.904000	1010.343018	-0.245000	0.319375	-0.245000
2.196000	9.699000	1021.384033	-0.253750	0.616875	-0.223125
6.344000	6.100000	1014.429993	-0.249375	0.525000	-0.223125
6.466000	9.089000	1016.382019	-0.350000	0.568750	-0.166250
11.651000	10.004000	1012.843994	-0.350000	0.481250	-0.218750
8.418000	5.002000	1015.710999	-0.280000	0.472500	-0.262500
6.466000	8.479000	1016.015991	-0.450625	0.708750	-0.210000
9.699000	8.784000	1014.796021	-0.481250	0.927500	-0.288750
5.978000	6.466000	1013.332031	-0.376250	0.638750	-0.266875
3.416000	9.333000	1018.517029	-0.328125	0.577500	-0.271250
-1.586000	5.124000	1015.650024	-0.323750	0.420000	-0.297500
2.745000	7.320000	1014.918030	-0.223125	0.468125	-0.266875
6.771000	5.002000	1015.101013	-0.306250	0.612500	-0.280000
9.943000	6.100000	1016.260010	-0.240625	0.367500	-0.253750
4.819000	6.832000	1014.064026	-0.122500	0.533750	-0.297500
5.368000	7.564000	1015.161987	-0.170625	0.485625	-0.288750
5.246000	5.612000	1014.796021	-0.376250	0.301875	-0.271250
-0.671000	5.734000	1012.721985	-0.183750	0.210000	-0.262500
1.891000	8.357000	1015.223022	-0.100625	0.380625	-0.319375
6.771000	5.246000	1015.040039	-0.428750	0.634375	-0.319375
6.588000	6.100000	1014.429993	-0.389375	0.783125	-0.280000
8.845000	5.978000	1011.867981	-0.441875	0.665000	-0.231875
-1.647000	2.867000	1020.713013	-0.214375	0.678125	-0.223125
2.379000	10.431000	1014.247009	-0.214375	0.581875	-0.223125
7.015000	5.490000	1020.103027	-0.196875	0.271250	-0.280000
3.904000	6.832000	1010.343018	-0.293125	0.398125	-0.249375
3.294000	8.296000	1018.273010	-0.135625	0.490000	-0.227500
2.440000	8.174000	1017.968018	-0.315000	0.756875	-0.140000
2.440000	12.261000	1016.626038	-0.153125	0.630000	-0.275625
7.259000	1.891000	1011.014038	-0.266875	0.293125	-0.271250
5.612000	1.464000	1015.467041	-0.306250	0.363125	-0.293125
8.601000	7.076000	1016.199036	-0.323750	0.411250	-0.363125
5.246000	6.954000	1013.820007	-0.271250	0.525000	-0.245000
8.357000	4.880000	1011.380005	-0.236250	0.507500	-0.350000
3.782000	5.856000	1013.210022	-0.052500	0.455000	-0.253750
2.196000	8.174000	1016.565002	-0.288750	0.603750	-0.258125
8.357000	5.612000	1013.210022	-0.415625	0.656250	-0.258125
7.076000	4.758000	1004.364990	-0.140000	0.437500	-0.297500
2.928000	7.747000	1014.613037	-0.175000	0.713125	-0.288750
-1.586000	6.710000	1014.429993	-0.293125	0.546875	-0.240625
5.917000	-1.403000	1008.268982	-0.205625	0.525000	-0.297500
3.050000	2.928000	1012.783020	-0.398125	0.599375	-0.236250
-0.976000	9.455000	1014.674011	-0.367500	0.472500	-0.170625
9.211000	4.270000	1011.746033	-0.096250	0.463750	-0.144375
10.126000	13.847000	1014.979004	-0.284375	0.704375	-0.332500
8.174000	0.915000	1012.234009	-0.341250	0.691250	-0.293125
-0.915000	12.444000	1017.419006	-0.433125	0.638750	-0.096250
2.257000	18.483000	1012.356018	-0.306250	0.455000	-0.118125
9.943000	11.773000	1013.697998	-0.210000	0.424375	-0.284375
13.115000	5.185000	1009.428040	-0.363125	0.546875	-0.507500
-3.416000	-0.610000	1013.454041	-0.288750	0.494375	-0.183750
10.614000	18.117001	1016.565002	-0.144375	0.507500	-0.192500
11.102000	7.747000	1019.614990	-0.105000	0.306250	-0.310625
8.296000	0.793000	1009.367004	-0.048125	0.437500	-0.428750
-1.647000	-0.976000	1001.437012	-0.192500	0.682500	-0.280000
2.623000	-0.122000	1019.554016	-0.301875	0.420000	-0.240625
10.675000	12.566000	1019.919983	-0.201250	0.511875	-0.100625
8.052000	4.209000	1011.807007	-0.231875	0.472500	-0.345625
3.538000	-4.087000	1012.356018	-0.376250	0.577500	-0.350000
1.220000	3.477000	1013.942017	-0.266875	0.516250	-0.262500
10.187000	9.882000	1015.283997	-0.463750	0.910000	-0.223125
6.466000	5.612000	1012.478027	-0.271250	0.520625	-0.354375
-0.549000	4.026000	1011.380005	-0.091875	0.415625	-0.354375
8.967000	4.514000	1011.380005	-0.301875	0.752500	-0.196875
3.355000	6.893000	1016.442993	-0.367500	0.765625	-0.210000
6.771000	13.847000	1012.234009	-0.371875	0.673750	-0.214375
1.891000	7.503000	1015.467041	-0.266875	0.332500	-0.275625
-1.586000	-3.355000	1015.406006	-0.109375	0.240625	-0.192500
1.647000	5.063000	1009.611023	-0.210000	0.463750	-0.205625
5.856000	7.442000	1014.186035	-0.446250	0.686875	-0.122500
3.538000	7.198000	1017.053040	-0.161875	0.468125	-0.336875
3.172000	-0.793000	1016.382019	-0.039375	0.393750	-0.323750
5.917000	8.357000	1011.502014	-0.183750	0.542500	-0.218750
10.431000	15.799000	1011.989990	-0.293125	0.608125	-0.262500
6.954000	13.664001	1009.549988	-0.231875	0.437500	-0.376250
4.026000	6.161000	1016.442993	-0.231875	0.494375	-0.315000
11.285000	8.052000	1013.088013	-0.249375	0.498750	-0.157500
8.296000	8.662000	1014.064026	-0.253750	0.485625	-0.236250
6.588000	12.017000	1013.942017	-0.297500	0.437500	-0.319375
0.915000	1.708000	1013.088013	-0.148750	0.262500	-0.240625
6.405000	7.015000	1013.454041	-0.192500	0.450625	-0.284375
3.416000	7.808000	1015.040039	-0.148750	0.660625	-0.262500
2.562000	8.174000	1012.356018	-0.380625	0.542500	-0.288750
6.649000	3.904000	1014.796021	-0.188125	0.507500	-0.227500
6.222000	5.368000	1011.135986	-0.262500	0.546875	-0.227500
3.782000	8.601000	1014.613037	-0.315000	0.538125	-0.280000
7.015000	10.797000	1015.772034	-0.218750	0.542500	-0.301875
4.758000	7.686000	1010.892029	-0.358750	0.603750	-0.245000
1.464000	1.952000	1012.234009	-0.293125	0.590625	-0.266875
5.612000	3.843000	1016.260010	-0.350000	0.560000	-0.266875
7.564000	4.148000	1015.893982	-0.341250	0.660625	-0.284375
5.490000	5.124000	1014.429993	-0.271250	0.809375	-0.293125
7.442000	7.686000	1013.332031	-0.350000	0.669375	-0.319375
6.100000	4.758000	1015.955017	-0.288750	0.345625	-0.380625
1.952000	7.869000	1014.429993	-0.301875	0.389375	-0.288750
8.357000	10.919000	1016.382019	-0.223125	0.507500	-0.301875
2.928000	5.856000	1012.112000	-0.074375	0.691250	-0.306250
-2.989000	3.172000	1014.552002	-0.188125	0.625625	-0.148750
3.965000	4.697000	1011.746033	-0.437500	0.721875	-0.354375
4.514000	9.943000	1017.296997	-0.350000	0.468125	-0.297500
3.538000	2.135000	1013.942017	-0.144375	0.371875	-0.214375
2.074000	5.795000	1012.600037	-0.363125	0.616875	-0.126875
8.601000	14.945000	1016.199036	-0.315000	0.713125	-0.175000
13.359000	10.980000	1013.820007	-0.297500	0.721875	-0.293125
5.917000	4.819000	1014.918030	-0.297500	0.616875	-0.332500
3.904000	-0.122000	1014.918030	-0.424375	0.612500	-0.371875
3.782000	5.063000	1014.429993	-0.253750	0.555625	-0.367500
1.952000	7.747000	1013.210022	0.004375	0.192500	-0.240625
4.026000	5.734000	1011.441040	-0.420000	0.494375	-0.301875
8.235000	10.065001	1012.843994	-0.358750	0.393750	-0.210000
4.514000	8.540000	1020.591003	-0.227500	0.494375	-0.183750
5.612000	4.514000	1015.528015	-0.297500	0.643125	-0.205625
6.466000	4.026000	1015.283997	-0.367500	0.678125	-0.323750
5.124000	6.771000	1016.015991	-0.293125	0.612500	-0.371875
5.124000	6.832000	1010.587036	-0.336875	0.406875	-0.214375
7.686000	3.782000	1015.710999	-0.271250	0.459375	-0.253750
5.246000	6.405000	1013.697998	-0.297500	0.498750	-0.354375
2.074000	5.795000	1014.307983	-0.262500	0.494375	-0.306250
7.869000	7.076000	1015.528015	-0.424375	0.586250	-0.323750
5.490000	6.466000	1016.260010	-0.328125	0.354375	-0.280000
5.490000	9.455000	1013.210022	-0.249375	0.455000	-0.236250
6.100000	3.477000	1013.697998	-0.262500	0.695625	-0.196875
4.758000	8.113000	1015.283997	-0.249375	0.730625	-0.214375
5.978000	4.758000	1015.283997	-0.245000	0.433125	-0.231875
5.978000	4.636000	1018.151001	-0.280000	0.441875	-0.223125
5.002000	7.747000	1016.869995	-0.271250	0.581875	-0.227500
5.612000	10.614000	1017.236023	-0.196875	0.441875	-0.328125
8.174000	6.588000	1014.674011	-0.336875	0.748125	-0.196875
4.636000	10.675000	1016.138000	-0.568750	0.765625	-0.262500
3.904000	9.150001	1013.332031	-0.455000	0.494375	-0.288750
6.710000	7.808000	1013.088013	-0.280000	0.494375	-0.262500
8.052000	4.148000	1010.160034	-0.078750	0.494375	-0.231875
7.442000	5.246000	1017.053040	-0.306250	0.756875	-0.183750
-0.793000	8.235000	1012.478027	-0.205625	0.647500	-0.236250
-1.830000	-0.305000	1012.721985	-0.105000	0.420000	-0.201250
15.860001	7.381000	1014.979004	-0.258125	0.437500	-0.192500
0.427000	10.614000	1014.796021	-0.144375	0.336875	-0.328125
-1.586000	4.087000	1018.639038	-0.201250	0.612500	-0.354375
5.063000	-1.037000	1012.783020	-0.398125	0.665000	-0.437500
3.904000	5.307000	1016.320984	-0.096250	0.345625	-0.231875
3.538000	16.348000	1011.867981	-0.253750	0.498750	-0.227500
2.562000	5.795000	1017.053040	-0.122500	0.485625	-0.306250
3.294000	3.050000	1016.747986	-0.126875	0.503125	-0.293125
8.479000	6.161000	1015.406006	-0.271250	0.533750	-0.153125
7.442000	8.296000	1017.723999	-0.245000	0.498750	-0.284375
1.769000	9.272000	1017.846008	-0.459375	0.713125	-0.284375
2.684000	5.368000	1011.135986	-0.323750	0.555625	-0.275625
2.196000	6.222000	1014.979004	-0.192500	0.520625	-0.284375
1.830000	8.296000	1015.283997	-0.227500	0.616875	-0.140000
5.917000	8.784000	1011.380005	-0.153125	0.726250	-0.153125
3.050000	9.394000	1013.088013	-0.249375	0.651875	-0.179375
14.030000	11.590000	1017.663025	-0.210000	0.415625	-0.415625
6.527000	9.882000	1012.478027	-0.074375	0.415625	-0.573125
7.686000	4.819000	1012.478027	-0.345625	0.778750	-0.516250
1.952000	3.172000	1014.064026	-0.323750	0.498750	-0.420000
10.004000	14.030000	1014.307983	-0.288750	0.590625	-0.297500
8.296000	5.551000	1013.454041	-0.315000	0.542500	-0.328125
3.294000	0.122000	1017.296997	-0.319375	0.721875	-0.284375
2.562000	2.562000	1012.356018	-0.122500	0.669375	-0.196875
6.283000	2.440000	1011.135986	-0.245000	0.581875	-0.205625
4.758000	6.161000	1011.746033	-0.105000	0.367500	-0.245000
3.050000	6.466000	1013.210022	-0.319375	0.603750	-0.210000
9.943000	4.514000	1014.429993	-0.196875	0.481250	-0.214375
10.004000	12.261000	1013.697998	-0.175000	0.398125	-0.293125
3.599000	8.784000	1015.833008	-0.157500	0.555625	-0.393750
6.283000	8.540000	1016.931030	-0.245000	0.498750	-0.288750
2.562000	6.832000	1013.942017	-0.441875	0.599375	-0.323750
3.904000	9.516000	1014.918030	-0.205625	0.525000	-0.266875
6.466000	2.379000	1011.135986	-0.398125	0.831250	-0.284375
2.440000	3.538000	1013.454041	-0.441875	0.643125	-0.301875
6.405000	6.649000	1016.565002	-0.205625	0.459375	-0.122500
10.675000	9.333000	1014.918030	-0.205625	0.472500	-0.210000
6.710000	7.808000	1012.843994	-0.297500	0.612500	-0.415625
0.671000	1.647000	1011.989990	-0.210000	0.363125	-0.481250
6.283000	13.420000	1016.442993	-0.393750	0.630000	-0.280000
3.904000	7.015000	1019.614990	-0.323750	0.691250	-0.236250
3.660000	1.647000	1022.421021	-0.402500	0.791875	-0.179375
5.368000	9.455000	1011.319031	-0.389375	0.735000	-0.091875
13.115000	9.760000	1015.467041	-0.380625	0.485625	-0.323750
4.453000	10.248000	1016.015991	-0.319375	0.389375	-0.450625
-0.122000	2.501000	1017.846008	-0.188125	0.507500	-0.301875
6.893000	5.307000	1009.489014	-0.122500	0.490000	-0.280000
3.904000	7.991000	1019.005005	-0.297500	0.844375	-0.310625
3.782000	11.773000	1015.161987	-0.157500	0.503125	-0.170625
9.272000	5.490000	1014.064026	-0.284375	0.441875	-0.293125
5.368000	-1.769000	1012.721985	-0.122500	0.371875	-0.126875
12.871000	9.272000	1016.077026	-0.288750	0.721875	-0.223125
-6.954000	-0.671000	1011.867981	-0.297500	0.481250	-0.310625
0.549000	-3.660000	1010.892029	-0.402500	0.463750	-0.039375
15.860001	11.834001	1032.912964	-0.249375	0.717500	-0.087500
2.989000	9.882000	1014.796021	-0.358750	0.787500	-0.293125
10.431000	6.710000	1014.186035	-0.262500	0.503125	-0.301875
0.427000	1.586000	1013.210022	-0.021875	0.455000	-0.249375
-1.464000	4.209000	1015.772034	-0.135625	0.463750	-0.188125
16.287001	20.434999	1016.747986	-0.258125	0.424375	-0.275625
7.747000	-0.427000	1016.260010	-0.345625	0.564375	-0.441875
-2.379000	1.098000	1012.843994	-0.218750	0.503125	-0.275625
5.307000	7.747000	1014.186035	-0.223125	0.494375	-0.253750
2.806000	7.320000	1015.040039	-0.371875	0.691250	-0.188125
4.758000	8.296000	1013.454041	-0.420000	0.866250	-0.131250
7.991000	11.163000	1014.552002	-0.161875	0.529375	-0.218750
5.856000	10.004000	1017.785034	0.004375	0.354375	-0.218750
3.416000	4.331000	1016.382019	-0.262500	0.420000	-0.205625
1.708000	7.625000	1017.174988	-0.306250	0.678125	-0.315000
0.976000	5.490000	1011.989990	-0.341250	0.511875	-0.306250
0.366000	5.124000	1014.429993	-0.306250	0.603750	-0.192500
11.956000	7.442000	1016.382019	-0.210000	0.441875	-0.376250
-1.586000	-4.453000	1013.942017	-0.131250	0.350000	-0.315000
8.784000	4.575000	1012.600037	-0.210000	0.529375	-0.105000
7.076000	11.285000	1017.663025	-0.218750	0.393750	-0.144375
2.684000	16.165001	1017.968018	-0.315000	0.756875	-0.166250
4.636000	8.601000	1016.992004	-0.328125	0.682500	-0.236250
6.588000	6.344000	1015.283997	-0.350000	0.525000	-0.192500
8.723001	10.187000	1015.893982	-0.310625	0.424375	-0.083125
10.370000	15.311000	1014.429993	-0.201250	0.686875	-0.336875
7.076000	0.732000	1012.478027	-0.109375	0.774375	-0.411250
3.538000	-2.928000	1014.429993	-0.157500	0.380625	-0.376250
-0.244000	6.649000	1012.112000	0.021875	0.332500	-0.332500
1.891000	13.603000	1016.199036	-0.262500	0.542500	-0.258125
9.089000	8.113000	1016.504028	-0.218750	0.450625	-0.420000
4.026000	-1.647000	1010.830994	-0.253750	0.603750	-0.354375
9.089000	0.610000	1014.002991	-0.389375	0.735000	-0.236250
1.098000	4.453000	1012.234009	-0.253750	0.551250	-0.122500
8.723001	9.821000	1015.833008	-0.262500	0.437500	-0.188125
7.076000	7.564000	1009.855042	-0.306250	0.301875	-0.249375
6.100000	-0.549000	1012.416992	-0.297500	0.564375	-0.210000
6.344000	13.908000	1017.296997	-0.420000	0.638750	-0.214375
1.464000	4.941000	1013.575989	-0.411250	0.612500	-0.245000
6.527000	6.832000	1015.040039	-0.148750	0.437500	-0.245000
8.662000	5.002000	1011.380005	-0.437500	0.424375	-0.262500
1.647000	7.198000	1012.843994	-0.406875	0.612500	-0.266875
5.246000	8.052000	1015.161987	-0.266875	0.743750	-0.231875
5.612000	8.540000	1013.332031	-0.345625	0.704375	-0.354375
3.294000	7.686000	1018.760986	-0.266875	0.358750	-0.402500
0.000000	-1.281000	1014.796021	-0.161875	0.485625	-0.354375
3.477000	4.209000	1016.138000	-0.354375	0.774375	-0.297500
2.318000	10.797000	1017.236023	-0.140000	0.494375	-0.253750
-0.610000	5.978000	1015.161987	-0.170625	0.393750	-0.188125
-2.196000	-0.793000	1016.382019	-0.428750	0.778750	-0.043750
6.771000	8.357000	1014.186035	-0.424375	0.818125	0.096250
15.128000	11.834001	1014.429993	-0.638750	0.770000	-0.240625
7.869000	5.551000	1015.406006	-0.284375	0.367500	-0.341250
2.928000	4.758000	1013.942017	-0.196875	0.459375	-0.389375
-1.220000	8.601000	1017.174988	-0.131250	0.503125	-0.376250
5.307000	12.505000	1015.283997	-0.323750	0.511875	-0.258125
4.880000	11.956000	1010.038025	-0.323750	0.367500	-0.428750
0.366000	3.843000	1014.491028	-0.319375	0.647500	-0.446250
-0.976000	7.137000	1013.575989	-0.420000	0.739375	-0.293125
0.366000	4.880000	1012.721985	-0.411250	0.546875	-0.144375
-0.244000	2.928000	1015.467041	-0.100625	0.577500	-0.214375
5.002000	5.490000	1017.846008	-0.183750	0.420000	-0.249375
1.220000	2.440000	1009.976990	-0.262500	0.577500	-0.078750
4.697000	11.163000	1015.588989	-0.328125	0.538125	-0.105000
3.904000	8.540000	1016.992004	-0.161875	0.546875	-0.240625
12.505000	6.710000	1011.807007	-0.126875	0.638750	-0.227500
7.808000	6.100000	1013.088013	-0.284375	0.546875	-0.223125
6.222000	3.294000	1013.088013	-0.275625	0.529375	-0.258125
-3.843000	5.795000	1015.650024	-0.227500	0.516250	-0.148750
6.527000	8.662000	1012.966003	-0.253750	0.253750	-0.030625
5.307000	5.734000	1018.273010	-0.367500	0.713125	-0.196875
4.148000	6.344000	1014.429993	-0.266875	0.271250	-0.188125
5.002000	7.808000	1015.406006	-0.157500	0.402500	-0.188125
1.342000	5.368000	1011.502014	-0.306250	0.503125	-0.210000
11.285000	7.442000	1011.257996	-0.210000	0.752500	-0.205625
6.466000	9.028000	1015.833008	-0.328125	0.774375	-0.166250
7.442000	6.832000	1011.014038	-0.293125	0.402500	-0.275625
4.148000	4.148000	1012.966003	-0.293125	0.490000	-0.249375
5.978000	10.919000	1008.452026	-0.533750	0.551250	-0.258125
10.675000	7.320000	1012.294983	-0.476875	0.796250	-0.240625
5.978000	8.540000	1012.721985	-0.214375	0.398125	-0.201250
0.671000	8.418000	1015.467041	-0.214375	0.625625	-0.262500
3.477000	8.052000	1011.135986	-0.306250	0.621250	-0.315000
4.026000	6.100000	1013.575989	-0.258125	0.437500	-0.196875
7.137000	4.880000	1014.307983	-0.214375	0.533750	-0.122500
0.305000	8.723001	1016.504028	-0.271250	0.721875	-0.218750
5.551000	11.346000	1015.528015	-0.398125	0.761250	-0.210000
7.747000	5.978000	1011.502014	-0.306250	0.503125	-0.341250
0.061000	6.832000	1017.906982	-0.100625	0.533750	-0.266875
3.477000	5.002000	1013.575989	-0.126875	0.385000	-0.280000
7.503000	4.636000	1014.796021	-0.262500	0.590625	-0.214375
7.686000	2.928000	1014.064026	-0.420000	0.555625	-0.205625
1.281000	5.246000	1014.918030	-0.266875	0.455000	-0.315000
0.610000	1.098000	1012.356018	-0.140000	0.551250	-0.280000
5.063000	6.527000	1012.843994	-0.310625	0.577500	-0.280000
3.782000	9.333000	1015.101013	-0.262500	0.533750	-0.271250
6.527000	10.004000	1015.161987	-0.096250	0.511875	-0.253750
2.074000	5.368000	1011.135986	-0.039375	0.468125	-0.323750
1.464000	6.710000	1013.697998	-0.205625	0.446250	-0.332500
2.684000	5.978000	1015.650024	-0.354375	0.678125	-0.157500
-0.244000	2.074000	1010.526001	-0.354375	0.542500	-0.223125
4.941000	5.551000	1020.468994	-0.214375	0.398125	-0.249375
2.928000	9.455000	1013.515015	-0.227500	0.630000	-0.271250
6.161000	4.270000	1015.650024	-0.293125	0.651875	-0.284375
3.172000	2.684000	1017.601990	-0.175000	0.428750	-0.240625
3.538000	6.527000	1014.186035	-0.109375	0.529375	-0.188125
5.002000	8.662000	1012.478027	-0.249375	0.713125	-0.231875
2.440000	6.832000	1015.345032	-0.240625	0.498750	-0.350000
4.392000	10.187000	1018.639038	-0.205625	0.472500	-0.231875
5.246000	4.209000	1014.674011	-0.161875	0.371875	-0.319375
6.100000	10.553000	1015.893982	-0.183750	0.485625	-0.266875
1.952000	7.198000	1016.382019	-0.170625	0.503125	-0.301875
7.259000	3.904000	1016.504028	-0.275625	0.516250	-0.306250
4.270000	6.466000	1016.382019	-0.288750	0.555625	-0.262500
4.392000	5.734000	1014.307983	-0.227500	0.564375	-0.315000
3.294000	5.002000	1014.796021	-0.476875	0.665000	-0.315000
0.854000	2.440000	1012.112000	-0.236250	0.441875	-0.301875
4.453000	9.760000	1016.747986	-0.166250	0.323750	-0.253750
5.612000	10.858000	1016.747986	-0.455000	0.494375	-0.345625
1.830000	4.697000	1013.942017	-0.411250	0.630000	-0.341250
3.782000	-0.122000	1013.210022	-0.481250	0.511875	-0.148750
6.771000	4.697000	1016.442993	-0.223125	0.389375	-0.271250
1.159000	9.699000	1015.893982	-0.240625	0.695625	-0.240625
-0.854000	10.248000	1012.478027	-0.161875	0.385000	-0.236250
7.381000	9.882000	1014.674011	-0.323750	0.673750	-0.306250
3.050000	11.590000	1015.650024	-0.363125	0.511875	-0.415625
2.074000	-0.183000	1014.552002	-0.118125	0.494375	-0.284375
7.137000	11.163000	1011.014038	-0.437500	0.503125	-0.258125
8.784000	6.832000	1016.442993	-0.398125	0.560000	-0.266875
0.549000	5.734000	1016.015991	-0.350000	0.533750	-0.262500
3.843000	4.636000	1016.138000	-0.271250	0.490000	-0.157500
3.538000	4.026000	1015.772034	-0.284375	0.564375	-0.253750
2.318000	3.538000	1014.552002	-0.345625	0.590625	-0.266875
6.161000	6.283000	1013.088013	-0.262500	0.472500	-0.240625
-0.183000	10.309000	1012.966003	-0.100625	0.494375	-0.262500
5.429000	2.135000	1014.186035	-0.297500	0.612500	-0.223125
3.172000	0.915000	1016.015991	-0.201250	0.538125	-0.236250
4.880000	6.649000	1016.260010	-0.205625	0.332500	-0.113750
0.000000	5.856000	1016.869995	-0.341250	0.612500	-0.266875
6.405000	7.686000	1019.554016	-0.275625	0.621250	-0.350000
2.196000	3.538000	1014.064026	-0.056875	0.315000	-0.284375
-1.952000	4.270000	1010.160034	-0.328125	0.608125	-0.306250
4.941000	7.991000	1015.710999	-0.420000	0.577500	-0.275625
10.553000	8.540000	1015.650024	-0.091875	0.231875	-0.245000
7.320000	5.856000	1015.040039	-0.183750	0.660625	-0.249375
1.647000	3.050000	1011.014038	-0.459375	0.608125	-0.358750
0.366000	4.331000	1016.687012	-0.328125	0.651875	-0.271250
4.209000	8.235000	1014.429993	-0.109375	0.398125	-0.350000
2.196000	7.320000	1015.650024	-0.280000	0.420000	-0.371875
-0.854000	1.891000	1012.721985	-0.424375	0.599375	-0.393750
3.111000	2.806000	1017.174988	-0.428750	0.450625	-0.301875
10.065001	3.050000	1015.161987	-0.262500	0.402500	-0.061250
6.222000	9.089000	1016.869995	-0.293125	0.376250	-0.008750
12.017000	22.936001	1017.480042	-0.140000	0.118125	-0.170625
2.623000	6.344000	1011.989990	-0.118125	0.433125	-0.516250
0.061000	-1.037000	1013.637024	-0.205625	0.520625	-0.070000
0.122000	11.712000	1013.575989	-0.135625	0.564375	-0.056875
7.503000	14.030000	1015.833008	-0.280000	0.643125	-0.070000
11.285000	6.893000	1015.528015	-0.341250	0.603750	-0.210000
2.135000	0.915000	1012.721985	-0.516250	0.883750	-0.420000
0.000000	0.488000	1010.770020	-0.402500	0.686875	-0.297500
2.440000	3.233000	1010.526001	-0.240625	0.433125	-0.039375
6.039000	13.481000	1016.809021	-0.350000	0.717500	0.065625
12.261000	9.150001	1012.843994	-0.122500	0.516250	-0.100625
1.159000	2.745000	1012.600037	-0.389375	0.713125	-0.196875
0.366000	-2.318000	1016.442993	-0.266875	0.599375	-0.175000
0.488000	10.614000	1016.869995	-0.293125	0.433125	-0.035000
11.834001	15.921000	1020.591003	-0.402500	0.669375	-0.118125
19.580999	20.434999	1014.247009	-0.275625	0.516250	-0.380625
10.919000	5.124000	1013.942017	-0.175000	0.498750	-0.770000
-6.954000	-5.185000	1013.697998	-0.297500	0.634375	-0.700000
-3.233000	-4.148000	1017.541016	-0.363125	0.503125	-0.446250
-7.686000	5.856000	1014.064026	-0.433125	0.551250	-0.258125
-4.087000	4.880000	1012.600037	-0.485625	0.669375	0.070000
16.592001	13.664001	1015.833008	-0.227500	0.350000	-0.021875
6.283000	16.775000	1016.626038	-0.450625	0.665000	-0.284375
-1.525000	14.518001	1019.614990	-0.236250	0.481250	-0.358750
2.501000	1.708000	1013.270996	-0.258125	0.468125	-0.393750
-5.795000	-6.039000	1015.161987	-0.245000	0.638750	-0.301875
-2.135000	7.442000	1012.356018	-0.424375	0.560000	-0.175000
6.527000	16.653000	1015.588989	-0.323750	0.726250	-0.105000
8.540000	11.956000	1019.737000	-0.144375	0.402500	-0.332500
5.368000	1.525000	1015.650024	-0.210000	0.608125	-0.310625
2.806000	-3.660000	1011.989990	-0.240625	0.358750	-0.336875
-1.586000	9.089000	1015.650024	-0.043750	0.157500	-0.157500
8.235000	13.847000	1016.869995	-0.227500	0.634375	-0.175000
13.847000	5.307000	1015.528015	-0.367500	0.778750	-0.319375
2.135000	6.954000	1015.528015	-0.293125	0.603750	-0.385000
-3.355000	0.793000	1013.210022	-0.341250	0.568750	-0.196875
2.989000	3.477000	1013.210022	-0.240625	0.599375	-0.091875
5.795000	3.782000	1013.454041	-0.301875	0.805000	-0.183750
9.211000	5.734000	1014.307983	-0.231875	0.581875	-0.266875
8.296000	12.993000	1014.918030	-0.231875	0.581875	-0.371875
7.015000	4.148000	1012.721985	-0.126875	0.463750	-0.301875
7.442000	2.928000	1018.273010	-0.100625	0.420000	-0.214375
4.026000	7.259000	1014.796021	-0.293125	0.756875	-0.210000
7.747000	11.529000	1015.040039	-0.306250	0.770000	-0.258125
8.418000	7.198000	1012.356018	-0.350000	0.778750	-0.363125
10.248000	2.684000	1012.356018	-0.249375	0.393750	-0.227500
-0.427000	1.220000	1019.492981	-0.249375	0.586250	-0.227500
-1.708000	3.050000	1013.148987	-0.420000	0.529375	-0.140000
3.477000	7.869000	1017.053040	-0.196875	0.560000	0.008750
14.152000	13.969000	1012.112000	-0.218750	0.643125	-0.196875
2.562000	2.562000	1011.867981	-0.113750	0.538125	-0.293125
2.196000	6.161000	1015.223022	-0.218750	0.542500	-0.358750
4.148000	9.821000	1017.114014	-0.262500	0.406875	-0.245000
6.466000	10.614000	1016.260010	-0.131250	0.612500	-0.262500
6.466000	6.100000	1012.112000	-0.056875	0.472500	-0.371875
-2.013000	5.734000	1009.306030	-0.100625	0.647500	-0.455000
-3.294000	2.196000	1012.051025	-0.275625	0.437500	-0.310625
2.257000	2.196000	1012.478027	-0.227500	0.586250	-0.210000
6.039000	10.797000	1008.695984	-0.183750	0.350000	-0.091875
2.318000	3.477000	1013.942017	-0.293125	0.721875	-0.245000
14.396000	1.098000	1011.867981	-0.328125	0.656250	-0.161875
8.357000	13.420000	1012.234009	-0.153125	0.336875	-0.310625
-2.135000	2.501000	1013.575989	-0.280000	0.599375	-0.350000
2.379000	-1.830000	1011.502014	-0.258125	0.468125	-0.118125
7.747000	7.503000	1012.356018	-0.402500	0.669375	-0.122500
7.442000	11.773000	1015.833008	-0.275625	0.546875	-0.288750
6.222000	6.039000	1015.772034	-0.280000	0.673750	-0.336875
9.455000	8.845000	1013.088013	-0.253750	0.428750	-0.323750
6.466000	1.220000	1012.843994	-0.161875	0.638750	-0.472500
7.015000	6.161000	1011.624023	-0.218750	0.450625	-0.192500
-4.453000	6.588000	1013.210022	-0.236250	0.560000	-0.083125
7.442000	8.540000	1015.528015	-0.201250	0.564375	-0.166250
7.320000	11.529000	1014.796021	-0.328125	0.560000	-0.131250
6.954000	8.174000	1016.626038	-0.266875	0.472500	-0.280000
8.540000	5.734000	1011.867981	-0.358750	0.634375	-0.345625
4.148000	6.710000	1015.345032	-0.455000	0.608125	-0.367500
2.928000	0.427000	1011.502014	-0.542500	0.393750	-0.214375
10.431000	2.074000	1002.291016	-0.511875	0.691250	-0.227500
3.355000	6.588000	1016.382019	-0.406875	0.700000	-0.301875
2.440000	7.198000	1014.674011	-0.376250	0.630000	-0.441875
-0.976000	1.281000	1013.575989	-0.153125	0.402500	-0.293125
5.185000	3.050000	1013.210022	-0.371875	0.686875	-0.070000
8.967000	7.747000	1012.478027	-0.293125	0.437500	-0.013125
4.392000	9.882000	1014.307983	-0.196875	0.735000	-0.210000
4.758000	5.856000	1013.575989	-0.249375	0.634375	-0.315000
1.342000	-2.623000	1013.697998	-0.393750	0.691250	-0.183750
0.000000	0.915000	1011.014038	-0.118125	0.472500	0.021875
12.993000	14.579000	1010.038025	-0.402500	0.428750	-0.013125
19.703001	13.420000	1013.270996	-0.420000	0.450625	-0.354375
1.342000	7.015000	1013.942017	-0.275625	0.608125	-0.577500
-8.357000	0.061000	1012.356018	-0.175000	0.389375	-0.472500
-2.379000	-4.514000	1012.721985	-0.249375	0.691250	-0.153125
12.322001	8.540000	1011.502014	-0.214375	0.498750	0.039375
15.067000	17.507000	1013.210022	-0.328125	0.511875	-0.131250
10.126000	13.420000	1013.088013	-0.406875	0.481250	-0.406875
-3.172000	-3.538000	1010.892029	-0.100625	0.651875	-0.463750
-1.098000	-8.784000	1012.843994	0.131250	0.415625	-0.258125
5.246000	14.396000	1017.419006	-0.039375	0.455000	-0.074375
7.442000	16.348000	1014.918030	-0.258125	0.498750	-0.354375
6.222000	2.562000	1011.624023	-0.262500	0.555625	-0.503125
1.220000	-1.586000	1012.234009	-0.406875	0.581875	-0.336875
4.941000	10.614000	1012.966003	-0.113750	0.551250	-0.341250
2.196000	13.176001	1013.697998	-0.323750	0.450625	-0.297500
7.869000	11.468000	1016.931030	-0.192500	0.411250	-0.218750
13.115000	6.588000	1012.234009	-0.030625	0.520625	-0.371875
5.795000	1.952000	1016.687012	-0.231875	0.621250	-0.332500
7.259000	6.466000	1012.600037	-0.161875	0.634375	-0.293125
8.906000	8.418000	1011.624023	-0.262500	0.363125	-0.275625
7.808000	6.832000	1015.833008	-0.284375	0.568750	-0.196875
3.172000	7.686000	1016.504028	-0.271250	0.437500	-0.196875
2.806000	7.320000	1011.502014	-0.083125	0.551250	-0.227500
7.747000	6.344000	1013.697998	-0.284375	0.831250	-0.341250
7.320000	7.076000	1015.040039	-0.450625	0.691250	-0.319375
3.782000	2.684000	1013.332031	-0.284375	0.726250	-0.218750
4.636000	2.074000	1014.064026	-0.389375	0.665000	-0.210000
6.771000	8.845000	1012.966003	-0.231875	0.595000	-0.245000
4.941000	2.196000	1012.112000	-0.319375	0.411250	-0.367500
2.074000	0.610000	1016.320984	-0.393750	0.708750	-0.249375
2.440000	9.333000	1013.575989	-0.441875	0.590625	-0.201250
10.797000	14.579000	1012.600037	-0.275625	0.406875	-0.350000
10.370000	6.771000	1011.502014	-0.266875	0.542500	-0.385000
1.647000	3.294000	1012.478027	-0.266875	0.481250	-0.402500
0.488000	3.782000	1011.624023	-0.227500	0.485625	-0.350000
2.867000	1.464000	1012.600037	-0.126875	0.525000	-0.192500
12.383000	10.675000	1015.710999	-0.301875	0.765625	-0.245000
1.403000	0.976000	1013.210022	-0.175000	0.573125	-0.341250
0.244000	0.610000	1013.088013	-0.350000	0.551250	-0.231875
2.562000	1.708000	1013.820007	-0.280000	0.424375	-0.188125
7.137000	10.431000	1012.721985	-0.345625	0.638750	-0.253750
8.052000	8.906000	1013.820007	-0.341250	0.538125	-0.284375
8.906000	4.636000	1013.697998	-0.175000	0.568750	-0.297500
5.734000	0.732000	1013.454041	-0.201250	0.630000	-0.315000
1.342000	2.562000	1012.234009	-0.315000	0.577500	-0.288750
6.649000	2.196000	1015.223022	-0.170625	0.616875	-0.218750
12.871000	12.688000	1011.867981	-0.236250	0.516250	-0.231875
8.113000	3.538000	1014.979004	-0.336875	0.761250	-0.245000
4.148000	7.259000	1012.356018	-0.293125	0.345625	-0.323750
2.806000	8.052000	1015.588989	-0.118125	0.406875	-0.297500
3.904000	11.407001	1013.210022	-0.266875	0.385000	-0.245000
5.612000	-0.915000	1008.817993	-0.240625	0.415625	-0.223125
2.318000	-5.612000	1013.027039	-0.354375	0.551250	-0.240625
6.649000	6.100000	1015.833008	-0.201250	0.511875	-0.210000
6.832000	13.359000	1011.624023	-0.406875	0.665000	-0.183750
6.222000	9.150001	1013.880981	-0.157500	0.520625	-0.223125
2.562000	9.516000	1012.966003	-0.196875	0.468125	-0.345625
5.856000	5.490000	1011.502014	-0.406875	0.555625	-0.315000
-0.793000	10.431000	1014.613037	-0.258125	0.529375	-0.140000
8.845000	9.028000	1017.174988	-0.433125	0.840000	-0.096250
8.784000	5.856000	1011.929016	-0.223125	0.529375	-0.210000
3.904000	5.002000	1013.575989	-0.175000	0.612500	-0.161875
3.050000	4.270000	1014.918030	-0.205625	0.433125	-0.253750
5.002000	8.845000	1012.234009	-0.385000	0.708750	-0.179375
10.675000	5.978000	1012.112000	-0.406875	0.765625	-0.144375
5.185000	5.856000	1018.151001	-0.385000	0.726250	-0.358750
3.660000	3.294000	1012.966003	-0.341250	0.498750	-0.350000
4.026000	7.991000	1014.552002	-0.105000	0.590625	-0.175000
8.113000	10.614000	1012.966003	-0.293125	0.638750	-0.236250
5.856000	8.052000	1014.064026	-0.433125	0.363125	-0.306250
7.198000	9.638000	1017.785034	-0.301875	0.551250	-0.319375
4.514000	4.880000	1013.332031	-0.236250	0.647500	-0.358750
6.588000	9.455000	1016.199036	-0.227500	0.389375	-0.258125
5.124000	9.760000	1015.528015	-0.376250	0.433125	-0.236250
3.660000	7.930000	1013.210022	-0.411250	0.713125	-0.262500
4.270000	2.623000	1016.565002	-0.144375	0.481250	-0.157500
7.259000	11.224000	1015.650024	-0.135625	0.608125	-0.223125
4.026000	5.551000	1017.601990	-0.153125	0.376250	-0.231875
8.967000	4.880000	1013.697998	-0.140000	0.533750	-0.275625
7.076000	9.943000	1015.161987	-0.354375	0.616875	-0.350000
0.427000	7.320000	1015.283997	-0.288750	0.595000	-0.288750
1.952000	5.246000	1013.575989	-0.179375	0.446250	-0.284375
-0.610000	9.455000	1015.406006	-0.148750	0.297500	-0.271250
6.283000	12.017000	1012.600037	-0.328125	0.551250	-0.306250
7.442000	9.272000	1012.234009	-0.205625	0.406875	-0.301875
3.172000	6.222000	1013.820007	-0.271250	0.485625	-0.301875
1.342000	6.893000	1015.101013	-0.148750	0.516250	-0.210000
13.542000	7.564000	1016.992004	-0.266875	0.564375	-0.170625
10.126000	8.906000	1010.098999	-0.035000	0.350000	-0.297500
1.037000	5.368000	1015.223022	-0.350000	0.603750	-0.336875
1.708000	5.856000	1015.406006	-0.245000	0.498750	-0.293125
6.527000	10.919000	1016.504028	-0.140000	0.595000	-0.266875
1.708000	9.272000	1016.747986	-0.175000	0.415625	-0.223125
-0.244000	6.100000	1016.504028	-0.179375	0.542500	-0.214375
-1.586000	0.793000	1015.406006	-0.380625	0.433125	-0.323750
-2.135000	5.368000	1013.697998	-0.350000	0.573125	-0.144375
2.013000	8.723001	1012.966003	-0.266875	0.573125	-0.070000
0.244000	5.612000	1014.429993	-0.415625	0.708750	-0.140000
2.989000	-0.427000	1013.332031	-0.354375	0.577500	-0.048125
-1.342000	1.098000	1017.541016	-0.188125	0.700000	0.017500
-1.586000	15.982000	1016.382019	-0.297500	0.656250	0.100625
9.272000	7.747000	1015.040039	-0.319375	0.656250	-0.035000
10.248000	1.037000	1011.867981	-0.328125	0.525000	-0.179375
8.174000	1.464000	1017.174988	-0.258125	0.529375	-0.245000
-1.403000	6.039000	1013.210022	-0.170625	0.490000	-0.205625
16.775000	9.394000	1013.942017	-0.336875	0.826875	-0.271250
17.446001	3.599000	1015.528015	-0.301875	0.437500	-0.455000
-6.771000	10.431000	1017.723999	-0.227500	0.568750	-0.376250
-12.139000	6.344000	1012.843994	-0.218750	0.529375	-0.179375
2.928000	1.098000	1012.721985	-0.118125	0.367500	0.091875
17.690001	5.795000	1014.552002	-0.315000	0.455000	-0.078750
13.176001	9.821000	1016.747986	-0.223125	0.503125	-0.328125
-7.564000	12.444000	1014.796021	-0.332500	0.599375	-0.354375
3.538000	5.307000	1016.504028	-0.236250	0.708750	-0.380625
8.113000	6.710000	1011.502014	-0.183750	0.660625	-0.341250
-10.553000	14.884000	1021.384033	-0.271250	0.756875	-0.389375
8.235000	-1.342000	1011.441040	-0.218750	0.608125	-0.266875
15.921000	-1.342000	1011.989990	-0.148750	0.542500	-0.196875
7.991000	13.786000	1015.101013	-0.192500	0.363125	-0.245000
-10.004000	15.982000	1013.942017	-0.345625	0.678125	-0.306250
0.854000	2.318000	1010.648010	-0.153125	0.376250	-0.385000
10.553000	-3.843000	1013.148987	-0.091875	0.402500	-0.363125
3.965000	-0.793000	1014.307983	-0.183750	0.411250	-0.192500
-2.745000	13.298000	1016.260010	-0.179375	0.481250	-0.210000
8.967000	2.684000	1011.502014	-0.126875	0.643125	-0.266875
3.355000	-1.220000	1013.210022	-0.275625	0.573125	-0.083125
-1.708000	8.357000	1015.528015	-0.192500	0.358750	-0.052500
17.141001	11.407001	1013.332031	-0.096250	0.686875	-0.118125
26.413000	13.176001	1018.395020	-0.148750	0.546875	-0.424375
1.403000	6.283000	1017.480042	-0.253750	0.634375	-0.647500
-21.410999	-1.037000	1014.918030	-0.218750	0.455000	-0.525000
-7.686000	-3.172000	1014.429993	-0.332500	0.651875	-0.131250
9.882000	0.793000	1011.989990	-0.323750	0.748125	0.091875
46.299000	15.250000	1016.565002	-0.183750	0.603750	0.056875
-22.753000	12.383000	1018.882996	-0.218750	0.380625	-1.299375
-47.640999	-15.189000	1011.075012	-0.385000	0.577500	-0.608125
0.000000	-20.007999	1006.134033	-0.175000	0.647500	0.214375
33.855000	8.540000	1011.441040	-0.284375	0.568750	0.310625
24.705000	40.748001	1021.200989	-0.284375	0.599375	-0.140000
-4.148000	21.716000	1025.471069	-0.157500	0.376250	-0.673750
-14.091001	-14.823000	1013.393005	-0.061250	0.415625	-0.861875
-11.041000	-22.387001	1007.415039	-0.170625	0.625625	-0.350000
8.357000	1.403000	1014.979004	-0.341250	0.612500	0.319375
15.921000	30.012001	1016.260010	-0.301875	0.398125	0.293125
4.697000	2.501000	1015.040039	-0.266875	0.485625	-0.691250
-9.516000	-16.469999	1008.268982	-0.306250	0.599375	-0.516250
-4.087000	-8.235000	1011.684998	-0.380625	0.538125	-0.017500
1.769000	20.374001	1015.467041	-0.179375	0.752500	0.179375
19.032000	24.827000	1015.893982	-0.284375	0.529375	-0.153125
11.529000	7.808000	1013.332031	-0.153125	0.507500	-0.380625
-1.037000	-9.394000	1010.281982	-0.223125	0.406875	-0.389375
-8.967000	-5.795000	1014.613037	-0.245000	0.354375	-0.153125
-0.061000	13.237000	1016.138000	-0.402500	0.529375	0.048125
10.248000	10.370000	1012.966003	-0.538125	0.630000	-0.091875
-2.379000	-3.538000	1010.770020	-0.035000	0.665000	-0.380625
-3.172000	0.671000	1014.613037	-0.183750	0.564375	-0.367500
3.599000	8.235000	1015.283997	-0.280000	0.713125	-0.240625
11.773000	12.749001	1020.225037	-0.249375	0.660625	-0.223125
15.433001	5.551000	1012.539001	-0.240625	0.717500	-0.231875
-2.928000	-0.061000	1013.210022	-0.450625	0.516250	-0.376250
-6.222000	6.527000	1014.918030	-0.183750	0.625625	-0.280000
-1.525000	2.684000	1017.601990	-0.175000	0.581875	-0.065625
15.616000	15.128000	1017.601990	-0.249375	0.595000	0.070000
-2.806000	7.076000	1013.332031	-0.380625	0.739375	-0.350000
-6.710000	-0.183000	1013.942017	-0.266875	0.498750	-0.284375
-4.392000	-1.952000	1015.161987	-0.201250	0.551250	-0.166250
5.551000	10.614000	1010.892029	-0.371875	0.538125	-0.126875
5.490000	12.688000	1015.710999	-0.315000	0.345625	-0.201250
6.466000	3.843000	1011.502014	-0.350000	0.481250	-0.328125
-1.037000	0.122000	1014.613037	-0.214375	0.717500	-0.363125
1.037000	0.732000	1008.635010	-0.354375	0.560000	-0.310625
0.366000	7.137000	1016.687012	-0.280000	0.660625	-0.223125
4.453000	9.150001	1015.528015	-0.210000	0.546875	-0.363125
6.100000	4.941000	1016.504028	-0.319375	0.774375	-0.371875
-1.891000	-1.525000	1013.575989	-0.323750	0.586250	-0.240625
3.599000	5.673000	1014.307983	-0.380625	0.616875	-0.236250
4.514000	12.993000	1018.028992	-0.433125	0.686875	-0.231875
5.490000	12.322001	1013.575989	-0.231875	0.380625	-0.336875
0.244000	5.429000	1014.064026	-0.214375	0.599375	-0.363125
3.233000	0.122000	1016.260010	-0.240625	0.770000	-0.323750
2.684000	0.732000	1014.186035	-0.201250	0.455000	-0.170625
6.283000	11.468000	1016.504028	-0.192500	0.468125	-0.271250
3.904000	4.514000	1014.307983	-0.113750	0.411250	-0.284375
4.880000	4.026000	1013.210022	-0.266875	0.612500	-0.354375
3.294000	3.904000	1014.674011	-0.166250	0.577500	-0.205625
9.455000	9.577000	1018.760986	-0.196875	0.660625	-0.253750
8.540000	8.662000	1016.138000	-0.118125	0.546875	-0.249375
4.026000	-1.159000	1013.088013	-0.389375	0.717500	-0.218750
4.270000	3.721000	1014.307983	-0.503125	0.498750	-0.170625
2.074000	9.821000	1014.918030	-0.455000	0.735000	-0.148750
3.416000	8.174000	1013.697998	-0.424375	0.507500	-0.310625
4.758000	9.638000	1015.161987	-0.245000	0.560000	-0.332500
7.320000	2.562000	1010.160034	-0.013125	0.161875	-0.271250
-1.403000	10.187000	1022.481995	-0.196875	0.463750	-0.310625
4.087000	10.614000	1010.830994	-0.205625	0.616875	-0.301875
8.113000	5.734000	1013.759033	-0.306250	0.494375	-0.323750
7.442000	5.490000	1013.697998	-0.140000	0.367500	-0.306250
1.159000	16.469999	1014.307983	-0.266875	0.608125	-0.297500
-5.917000	15.494000	1015.161987	-0.266875	0.507500	-0.428750
8.296000	-5.917000	1015.040039	-0.109375	0.402500	-0.341250
13.481000	-8.418000	1012.966003	-0.157500	0.437500	-0.210000
-7.198000	9.028000	1012.966003	-0.078750	0.205625	-0.179375
6.588000	11.651000	1016.626038	-0.026250	0.406875	-0.214375
9.821000	-2.440000	1011.014038	-0.306250	0.678125	-0.218750
4.331000	2.257000	1012.600037	-0.236250	0.380625	-0.214375
-6.893000	11.041000	1016.077026	-0.472500	0.595000	-0.074375
2.135000	11.346000	1016.992004	-0.231875	0.647500	-0.052500
14.274000	4.331000	1014.064026	-0.336875	0.581875	-0.188125
5.917000	3.294000	1011.014038	-0.341250	0.625625	-0.306250
-2.623000	7.259000	1010.526001	-0.201250	0.485625	-0.214375
-1.098000	3.782000	1017.663025	-0.170625	0.542500	-0.231875
10.248000	10.553000	1012.600037	-0.275625	0.739375	-0.275625
-2.196000	8.601000	1013.697998	-0.660625	0.752500	-0.350000
-1.952000	7.442000	1019.127014	-0.262500	0.485625	-0.336875
9.150001	2.684000	1017.846008	-0.122500	0.271250	-0.201250
6.466000	4.941000	1015.528015	-0.179375	0.573125	-0.288750
-1.647000	4.514000	1018.028992	-0.161875	0.468125	-0.227500
3.355000	7.625000	1016.747986	-0.183750	0.533750	-0.319375
6.283000	1.525000	1011.135986	-0.192500	0.695625	-0.201250
2.806000	4.453000	1018.882996	-0.240625	0.380625	-0.231875
1.098000	4.636000	1014.674011	-0.288750	0.625625	-0.223125
0.061000	6.466000	1012.173035	-0.332500	0.577500	-0.345625
10.553000	1.464000	1014.796021	-0.306250	0.853125	-0.249375
9.760000	15.616000	1016.809021	-0.109375	0.507500	-0.135625
3.111000	7.869000	1014.918030	-0.424375	0.625625	-0.236250
6.405000	5.124000	1016.869995	-0.245000	0.564375	-0.275625
9.333000	4.636000	1011.562988	-0.323750	0.468125	-0.293125
5.612000	5.002000	1016.442993	-0.249375	0.546875	-0.258125
2.318000	11.529000	1016.747986	-0.126875	0.371875	-0.135625
4.514000	8.906000	1012.600037	-0.341250	0.350000	-0.205625
7.747000	0.549000	1013.210022	-0.157500	0.564375	-0.236250
-1.159000	3.538000	1011.807007	-0.323750	0.463750	-0.227500
6.039000	4.514000	1016.199036	-0.083125	0.485625	-0.205625
3.294000	8.723001	1020.835022	-0.166250	0.411250	-0.240625
9.821000	10.004000	1014.125000	-0.205625	0.546875	-0.262500
0.427000	4.880000	1014.307983	-0.105000	0.310625	-0.192500
0.610000	5.490000	1015.528015	-0.201250	0.721875	-0.153125
7.381000	5.856000	1014.552002	-0.354375	0.577500	-0.205625
7.686000	9.943000	1011.135986	-0.319375	0.564375	-0.210000
7.564000	11.590000	1018.760986	-0.188125	0.459375	-0.341250
3.904000	8.784000	1013.148987	-0.223125	0.612500	-0.358750
6.710000	8.113000	1023.945984	-0.170625	0.542500	-0.284375
7.808000	8.784000	1011.562988	-0.118125	0.546875	-0.196875
0.549000	9.882000	1013.820007	-0.201250	0.647500	-0.280000
2.440000	7.198000	1019.005005	-0.236250	0.616875	-0.284375
7.381000	2.196000	1012.905029	-0.288750	0.704375	-0.258125
2.318000	4.819000	1017.541016	-0.061250	0.350000	-0.205625
2.196000	6.954000	1018.822021	-0.201250	0.520625	-0.328125
8.845000	7.686000	1016.382019	-0.354375	0.494375	-0.280000
0.427000	4.270000	1015.040039	-0.354375	0.638750	-0.284375
5.551000	4.758000	1016.869995	-0.245000	0.485625	-0.201250
3.538000	10.736000	1012.843994	-0.380625	0.595000	-0.358750
2.196000	7.930000	1016.442993	-0.245000	0.463750	-0.275625
7.503000	9.150001	1012.600037	-0.201250	0.529375	-0.315000
-0.061000	12.139000	1015.223022	-0.153125	0.551250	-0.236250
5.185000	6.405000	1014.674011	-0.236250	0.573125	-0.161875
4.026000	4.026000	1013.088013	-0.253750	0.682500	-0.223125
4.758000	6.222000	1014.796021	-0.210000	0.490000	-0.328125
-1.647000	8.662000	1011.380005	-0.205625	0.551250	-0.297500
1.525000	0.793000	1014.979004	-0.205625	0.568750	-0.284375
4.697000	10.919000	1012.112000	-0.253750	0.468125	-0.113750
10.309000	7.564000	1016.565002	-0.183750	0.660625	-0.223125
4.209000	7.442000	1016.382019	-0.367500	0.603750	-0.341250
2.074000	4.148000	1009.244995	-0.398125	0.516250	-0.293125
5.185000	6.344000	1015.345032	-0.319375	0.516250	-0.161875
8.845000	11.163000	1014.429993	-0.455000	0.573125	-0.122500
2.013000	14.701000	1015.283997	-0.293125	0.678125	-0.319375
0.610000	4.087000	1018.028992	-0.161875	0.406875	-0.415625
-0.366000	-1.769000	1015.893982	-0.258125	0.713125	-0.332500
6.039000	4.941000	1011.867981	-0.105000	0.420000	-0.131250
1.891000	9.150001	1017.601990	-0.280000	0.376250	-0.293125
-3.904000	4.148000	1014.186035	-0.450625	0.743750	-0.306250
4.941000	2.562000	1013.454041	-0.131250	0.354375	-0.275625
4.880000	6.893000	1013.088013	-0.214375	0.280000	-0.258125
7.991000	12.993000	1012.966003	-0.310625	0.406875	-0.144375
3.904000	4.941000	1012.966003	-0.389375	0.669375	-0.306250
7.625000	4.636000	1013.332031	-0.175000	0.503125	-0.192500
8.662000	6.893000	1011.380005	-0.288750	0.568750	-0.245000
5.368000	11.651000	1012.843994	-0.210000	0.306250	-0.301875
-2.501000	14.579000	1017.663025	-0.245000	0.393750	-0.293125
4.270000	2.257000	1016.320984	-0.455000	0.682500	-0.280000
7.747000	9.333000	1013.210022	-0.157500	0.402500	-0.236250
2.501000	8.784000	1017.174988	-0.236250	0.682500	-0.258125
-0.732000	3.111000	1013.210022	-0.135625	0.428750	-0.345625
0.244000	0.976000	1015.528015	-0.096250	0.398125	-0.201250
8.723001	7.503000	1014.186035	-0.560000	0.853125	-0.118125
4.270000	5.856000	1016.626038	-0.354375	0.630000	-0.166250
3.050000	7.930000	1015.040039	-0.376250	0.651875	-0.223125
2.074000	4.636000	1011.257996	-0.188125	0.538125	-0.109375
5.673000	7.503000	1013.454041	-0.126875	0.354375	-0.091875
0.854000	7.442000	1013.332031	-0.161875	0.472500	-0.271250
6.893000	3.782000	1013.942017	-0.188125	0.332500	-0.297500
4.636000	4.880000	1015.528015	-0.109375	0.603750	-0.284375
-1.281000	1.220000	1016.138000	-0.201250	0.420000	-0.293125
-3.904000	8.967000	1016.869995	-0.376250	0.651875	-0.245000
10.736000	10.004000	1018.944031	-0.341250	0.621250	-0.192500
11.102000	2.867000	1013.027039	-0.336875	0.813750	-0.358750
3.111000	7.259000	1014.674011	-0.310625	0.481250	-0.297500
-7.625000	4.880000	1014.186035	-0.354375	0.673750	-0.227500
11.163000	11.529000	1018.273010	-0.122500	0.306250	-0.275625
-1.464000	6.344000	1013.697998	-0.345625	0.288750	-0.319375
-0.976000	8.540000	1015.833008	-0.275625	0.542500	-0.380625
2.623000	6.588000	1013.210022	-0.052500	0.533750	-0.376250
2.440000	6.832000	1012.478027	-0.210000	0.608125	-0.249375
5.551000	6.100000	1014.186035	-0.354375	0.630000	-0.280000
-0.183000	5.856000	1012.721985	-0.175000	0.560000	-0.319375
-0.976000	3.782000	1015.833008	-0.301875	0.420000	-0.310625
9.638000	9.821000	1015.040039	-0.218750	0.625625	-0.074375
6.588000	4.453000	1016.015991	-0.328125	0.420000	-0.157500
-2.013000	0.854000	1015.467041	-0.223125	0.525000	-0.336875
-2.074000	1.464000	1012.478027	-0.249375	0.481250	-0.078750
7.625000	7.747000	1018.882996	-0.441875	0.560000	-0.245000
5.490000	10.797000	1015.772034	-0.468125	0.651875	-0.354375
1.220000	8.418000	1015.406006	-0.087500	0.428750	-0.240625
3.416000	2.745000	1014.918030	-0.341250	0.735000	-0.231875
-3.599000	3.050000	1018.639038	-0.288750	0.529375	-0.188125
13.786000	15.982000	1018.822021	-0.415625	0.481250	-0.253750
8.357000	11.956000	1021.018005	-0.109375	0.542500	-0.380625
4.514000	0.793000	1013.637024	-0.188125	0.612500	-0.494375
-0.854000	4.819000	1015.772034	-0.161875	0.271250	-0.205625
3.599000	14.518001	1015.283997	-0.415625	0.542500	-0.175000
9.089000	14.762000	1014.064026	-0.262500	0.695625	-0.275625
-1.281000	-1.708000	1015.406006	-0.323750	0.525000	-0.341250
2.867000	-3.172000	1013.942017	-0.135625	0.551250	-0.262500
8.479000	8.418000	1020.835022	-0.122500	0.398125	-0.166250
0.915000	16.165001	1013.027039	-0.266875	0.525000	-0.196875
-2.318000	0.366000	1010.526001	-0.218750	0.621250	-0.245000
3.721000	2.989000	1010.892029	-0.306250	0.533750	-0.345625
6.893000	4.514000	1011.746033	-0.315000	0.533750	-0.240625
4.209000	10.126000	1015.161987	-0.415625	0.621250	-0.297500
4.514000	-3.050000	1014.186035	-0.105000	0.415625	-0.288750
-0.976000	-3.050000	1018.395020	-0.135625	0.691250	-0.258125
0.854000	7.076000	1021.322998	-0.087500	0.284375	-0.118125
8.479000	10.431000	1018.944031	-0.293125	0.354375	-0.183750
3.904000	10.004000	1009.733032	-0.258125	0.476875	-0.297500
-2.989000	1.891000	1013.637024	-0.288750	0.586250	-0.306250
-1.220000	1.586000	1014.064026	-0.293125	0.721875	-0.205625
6.649000	12.566000	1016.747986	-0.354375	0.485625	-0.218750
4.697000	-0.305000	1013.637024	-0.074375	0.297500	-0.166250
0.854000	3.843000	1009.794006	-0.109375	0.608125	-0.271250
-3.294000	5.978000	1019.492981	-0.131250	0.433125	-0.271250
5.307000	6.832000	1013.027039	-0.266875	0.660625	-0.218750
6.466000	8.296000	1014.064026	-0.223125	0.476875	-0.253750
-0.183000	4.636000	1019.371033	-0.266875	0.568750	-0.350000
7.259000	4.148000	1014.064026	-0.223125	0.481250	-0.315000
9.516000	9.821000	1014.674011	-0.240625	0.721875	-0.205625
3.721000	0.793000	1016.809021	-0.166250	0.870625	-0.345625
6.039000	7.259000	1018.212036	-0.153125	0.656250	-0.144375
-3.233000	9.516000	1011.380005	-0.345625	0.625625	-0.205625
4.087000	2.379000	1014.734985	-0.179375	0.577500	-0.183750
2.440000	4.758000	1017.174988	-0.371875	0.455000	-0.227500
-2.928000	7.625000	1016.504028	-0.389375	0.686875	-0.231875
-0.854000	10.065001	1010.708984	-0.253750	0.590625	-0.179375
7.259000	5.612000	1013.270996	-0.175000	0.490000	-0.249375
7.930000	6.222000	1013.942017	-0.323750	0.765625	-0.345625
-4.697000	4.514000	1015.650024	-0.424375	0.542500	-0.354375
-5.856000	5.246000	1013.332031	-0.468125	0.783125	-0.179375
17.141001	6.344000	1015.650024	-0.476875	0.848750	-0.061250
-1.525000	12.505000	1011.989990	-0.411250	0.621250	-0.271250
9.028000	3.965000	1014.186035	-0.284375	0.796250	-0.188125
6.222000	4.514000	1016.015991	-0.231875	0.525000	-0.275625
0.976000	11.529000	1012.478027	-0.288750	0.560000	-0.249375
4.087000	7.686000	1010.892029	-0.105000	0.516250	-0.301875
7.259000	6.710000	1015.955017	-0.140000	0.323750	-0.420000
-1.281000	5.124000	1017.480042	-0.052500	0.393750	-0.433125
0.488000	7.320000	1007.171021	-0.065625	0.424375	-0.293125
3.111000	4.880000	1016.442993	-0.218750	0.555625	-0.223125
3.050000	3.172000	1012.356018	-0.196875	0.735000	-0.332500
3.294000	2.440000	1016.931030	-0.450625	0.485625	-0.236250
2.196000	5.185000	1015.161987	-0.306250	0.599375	-0.140000
6.527000	9.943000	1017.358032	-0.262500	0.498750	-0.061250
6.588000	9.760000	1017.968018	-0.131250	0.573125	-0.148750
7.930000	6.588000	1016.260010	-0.070000	0.315000	-0.310625
-1.403000	2.806000	1013.332031	-0.223125	0.468125	-0.389375
3.843000	2.196000	1015.040039	-0.196875	0.568750	-0.262500
15.128000	5.673000	1017.601990	-0.253750	0.555625	-0.293125
2.989000	7.686000	1015.283997	-0.323750	0.651875	-0.345625
-0.610000	8.235000	1016.015991	-0.192500	0.446250	-0.363125
3.599000	3.416000	1013.942017	-0.336875	0.713125	-0.301875
2.684000	5.917000	1011.014038	-0.371875	0.551250	-0.280000
5.429000	8.723001	1018.639038	-0.406875	0.459375	-0.161875
6.954000	5.856000	1012.294983	-0.485625	0.691250	-0.231875
1.647000	5.734000	1012.356018	-0.433125	0.748125	-0.275625
3.843000	7.564000	1019.371033	-0.297500	0.848750	-0.293125
-3.843000	-0.549000	1019.066040	-0.271250	0.656250	-0.315000
-4.392000	1.891000	1012.661011	-0.140000	0.363125	-0.284375
3.599000	8.845000	1013.637024	-0.315000	0.459375	-0.319375
1.281000	3.294000	1013.942017	-0.131250	0.393750	-0.310625
0.854000	4.758000	1017.419006	-0.332500	0.415625	-0.280000
0.488000	6.222000	1015.650024	-0.476875	0.813750	-0.301875
4.209000	2.928000	1010.770020	-0.354375	0.525000	-0.214375
3.416000	6.771000	1010.281982	-0.367500	0.595000	-0.262500
1.708000	8.784000	1014.369019	-0.122500	0.704375	-0.253750
4.819000	8.174000	1016.260010	-0.048125	0.406875	-0.310625
7.564000	7.686000	1015.040039	-0.113750	0.389375	-0.236250
0.305000	2.440000	1014.796021	-0.385000	0.546875	-0.218750
7.869000	4.758000	1016.138000	-0.223125	0.406875	-0.227500
5.734000	4.758000	1016.747986	-0.271250	0.463750	-0.258125
1.098000	7.381000	1013.088013	-0.231875	0.468125	-0.236250
-1.586000	1.891000	1015.772034	-0.297500	0.367500	-0.240625
4.575000	6.771000	1017.480042	-0.236250	0.463750	-0.336875
6.100000	11.651000	1013.088013	-0.140000	0.538125	-0.288750
1.830000	6.283000	1013.820007	-0.446250	0.638750	-0.284375
1.220000	2.684000	1014.429993	-0.293125	0.498750	-0.288750
0.610000	4.270000	1014.307983	-0.227500	0.468125	-0.319375
5.185000	7.381000	1015.650024	-0.310625	0.516250	-0.183750
3.416000	2.928000	1012.721985	-0.336875	0.529375	-0.319375
0.976000	10.065001	1017.296997	-0.424375	0.735000	-0.323750
5.063000	5.490000	1015.650024	-0.253750	0.612500	-0.245000
4.758000	6.344000	1015.283997	-0.249375	0.511875	-0.297500
-2.013000	7.442000	1014.796021	-0.297500	0.704375	-0.175000
7.930000	3.416000	1015.772034	-0.157500	0.345625	-0.188125
9.150001	9.577000	1010.770020	-0.210000	0.599375	-0.240625
3.721000	6.832000	1011.502014	-0.236250	0.713125	-0.288750
4.514000	5.978000	1015.833008	-0.196875	0.463750	-0.271250
5.673000	1.830000	1010.953003	-0.205625	0.301875	-0.205625
9.699000	13.176001	1018.760986	-0.341250	0.564375	-0.280000
3.965000	10.126000	1012.294983	-0.253750	0.463750	-0.363125
4.392000	6.466000	1011.257996	-0.319375	0.503125	-0.196875
9.211000	10.919000	1014.734985	-0.109375	0.363125	-0.148750
3.111000	7.808000	1008.635010	-0.332500	0.581875	-0.253750
-0.366000	6.222000	1010.648010	-0.433125	0.643125	-0.183750
1.891000	9.943000	1014.125000	-0.472500	0.472500	-0.271250
7.259000	7.198000	1015.040039	-0.411250	0.376250	-0.183750
-0.061000	3.416000	1014.307983	-0.153125	0.555625	-0.245000
5.063000	8.723001	1012.234009	-0.078750	0.459375	-0.126875
2.562000	6.100000	1010.281982	-0.201250	0.490000	-0.161875
1.098000	5.246000	1016.809021	-0.328125	0.756875	-0.140000
9.455000	8.723001	1016.504028	-0.336875	0.612500	-0.153125
10.248000	12.139000	1006.439026	-0.218750	0.481250	-0.240625
-0.549000	7.076000	1014.734985	-0.231875	0.717500	-0.376250
2.867000	4.880000	1023.640991	-0.131250	0.433125	-0.406875
-0.366000	1.220000	1015.588989	-0.210000	0.332500	-0.367500
-2.684000	6.405000	1014.552002	-0.406875	0.853125	-0.157500
11.712000	12.139000	1016.015991	-0.214375	0.621250	-0.214375
1.403000	1.891000	1013.210022	-0.253750	0.542500	-0.280000
2.684000	6.893000	1020.835022	-0.406875	0.608125	-0.249375
2.806000	8.906000	1012.051025	-0.118125	0.389375	-0.161875
9.211000	4.392000	1012.966003	-0.218750	0.367500	-0.253750
5.002000	6.100000	1018.882996	-0.358750	0.468125	-0.236250
5.490000	8.540000	1014.918030	-0.201250	0.393750	-0.236250
1.708000	9.516000	1011.380005	-0.310625	0.695625	-0.315000
8.723001	1.769000	1012.843994	-0.380625	0.538125	-0.301875
11.468000	6.405000	1015.101013	-0.157500	0.332500	-0.319375
-0.305000	6.771000	1019.371033	-0.196875	0.603750	-0.096250
15.616000	10.919000	1013.270996	-0.135625	0.336875	-0.122500
6.771000	2.989000	1015.406006	-0.376250	0.621250	-0.240625
-3.477000	5.124000	1016.869995	-0.376250	0.704375	-0.249375
-4.026000	4.392000	1014.429993	-0.188125	0.406875	-0.301875
7.564000	6.100000	1011.989990	-0.249375	0.476875	-0.376250
9.943000	4.392000	1012.843994	-0.315000	0.713125	-0.258125
-3.172000	3.294000	1012.478027	-0.262500	0.616875	-0.301875
-3.172000	-1.464000	1015.710999	-0.026250	0.708750	-0.236250
10.492001	6.771000	1008.635010	-0.109375	0.595000	-0.140000
2.501000	8.906000	1017.053040	-0.188125	0.402500	-0.341250
-7.259000	7.808000	1014.674011	-0.310625	0.748125	-0.363125
-3.355000	2.623000	1012.356018	-0.297500	0.529375	-0.183750
6.832000	1.342000	1017.174988	-0.354375	0.485625	-0.161875
4.636000	7.869000	1014.552002	-0.240625	0.612500	-0.205625
0.976000	9.272000	1010.526001	-0.105000	0.564375	-0.284375
-0.610000	5.734000	1015.467041	-0.288750	0.428750	-0.341250
0.488000	5.612000	1011.624023	-0.100625	0.297500	-0.280000
5.063000	7.869000	1021.445007	-0.319375	0.389375	-0.166250
5.490000	8.174000	1016.626038	-0.253750	0.700000	-0.109375
9.089000	2.074000	1014.674011	-0.004375	0.533750	-0.258125
5.856000	5.429000	1013.332031	-0.196875	0.529375	-0.266875
0.427000	5.246000	1016.320984	-0.179375	0.542500	-0.175000
-0.244000	10.187000	1016.747986	-0.249375	0.791875	-0.157500
5.429000	5.368000	1015.528015	-0.227500	0.630000	-0.223125
8.967000	5.246000	1011.989990	-0.310625	0.560000	-0.389375
3.233000	2.684000	1016.320984	-0.205625	0.647500	-0.336875
3.416000	-1.464000	1016.504028	-0.367500	0.450625	-0.385000
4.636000	4.575000	1012.966003	-0.551250	0.625625	-0.385000
0.610000	8.174000	1016.687012	-0.161875	0.511875	-0.183750
5.185000	8.906000	1013.942017	-0.175000	0.367500	-0.253750
6.588000	5.978000	1016.931030	-0.367500	0.603750	-0.323750
3.660000	0.549000	1010.587036	-0.288750	0.533750	-0.293125
3.782000	1.586000	1008.817993	-0.428750	0.752500	-0.170625
-7.015000	8.357000	1014.979004	-0.126875	0.468125	-0.288750
4.758000	12.261000	1020.103027	-0.240625	0.498750	-0.196875
7.503000	8.906000	1017.846008	-0.393750	0.735000	-0.323750
1.159000	-1.647000	1011.075012	-0.525000	0.643125	-0.420000
-9.943000	6.771000	1011.135986	-0.433125	0.411250	-0.297500
15.555000	13.969000	1020.773987	-0.236250	0.376250	-0.336875
1.464000	8.662000	1013.515015	-0.293125	0.555625	-0.398125
-7.381000	0.915000	1012.966003	-0.210000	0.656250	-0.271250
2.379000	4.941000	1012.112000	-0.017500	0.380625	-0.188125
12.932000	8.479000	1012.600037	-0.245000	0.437500	-0.166250
-1.342000	12.139000	1016.931030	-0.498750	0.630000	-0.170625
-2.074000	6.283000	1016.504028	-0.306250	0.503125	-0.288750
7.259000	0.061000	1005.829041	-0.323750	0.643125	-0.262500
2.196000	7.625000	1016.260010	-0.297500	0.560000	-0.262500
5.734000	6.100000	1014.552002	-0.196875	0.529375	-0.157500
0.976000	5.978000	1013.088013	-0.131250	0.590625	-0.393750
0.244000	3.660000	1014.674011	-0.249375	0.459375	-0.411250
2.684000	4.758000	1013.575989	-0.214375	0.651875	-0.188125
2.196000	10.553000	1009.549988	-0.109375	0.288750	-0.192500
5.917000	10.858000	1016.320984	-0.183750	0.332500	-0.249375
-3.843000	9.272000	1015.161987	-0.140000	0.691250	-0.301875
-0.427000	2.623000	1015.040039	-0.236250	0.586250	-0.328125
3.599000	4.392000	1014.307983	-0.380625	0.481250	-0.240625
-0.732000	9.699000	1008.879028	-0.345625	0.573125	-0.144375
3.355000	1.647000	1015.955017	-0.280000	0.398125	-0.306250
6.527000	0.488000	1012.112000	-0.446250	0.630000	-0.157500
-1.647000	8.479000	1016.077026	-0.341250	0.551250	-0.214375
-0.854000	10.492001	1012.600037	-0.301875	0.643125	-0.271250
6.771000	4.453000	1016.565002	-0.210000	0.450625	-0.315000
6.710000	3.050000	1016.138000	-0.253750	0.420000	-0.341250
-1.647000	8.357000	1018.700012	-0.310625	0.708750	-0.205625
-0.122000	8.784000	1018.455994	-0.350000	0.568750	-0.196875
5.185000	6.222000	1010.221008	-0.350000	0.783125	-0.280000
4.392000	8.540000	1016.077026	-0.275625	0.678125	-0.301875
2.318000	1.525000	1010.343018	-0.424375	0.398125	-0.293125
0.244000	3.294000	1012.600037	-0.223125	0.503125	-0.223125
7.503000	4.514000	1012.600037	-0.091875	0.485625	-0.288750
5.246000	8.601000	1014.674011	-0.315000	0.678125	-0.341250
-1.281000	5.734000	1010.892029	-0.245000	0.468125	-0.385000
4.453000	4.392000	1011.135986	-0.192500	0.590625	-0.315000
2.440000	6.466000	1014.734985	-0.258125	0.441875	-0.166250
4.819000	11.773000	1014.796021	-0.148750	0.481250	-0.258125
3.172000	1.525000	1016.809021	-0.363125	0.634375	-0.319375
2.928000	4.575000	1011.867981	-0.218750	0.743750	-0.227500
7.869000	14.884000	1015.833008	-0.284375	0.577500	-0.293125
2.928000	11.468000	1018.212036	-0.192500	0.695625	-0.380625
-0.976000	-0.305000	1012.416992	-0.135625	0.441875	-0.336875
4.331000	-4.514000	1015.345032	-0.406875	0.590625	-0.218750
4.148000	9.638000	1017.236023	-0.240625	0.700000	-0.196875
2.684000	14.579000	1021.200989	-0.371875	0.643125	-0.280000
3.050000	3.843000	1015.345032	-0.415625	0.730625	-0.284375
4.148000	4.026000	1016.747986	-0.236250	0.533750	-0.371875
3.660000	2.806000	1012.843994	-0.297500	0.402500	-0.175000
0.976000	7.381000	1016.199036	-0.253750	0.796250	-0.056875
6.039000	11.895000	1014.064026	-0.231875	0.503125	-0.253750
8.174000	6.649000	1008.879028	-0.223125	0.411250	-0.297500
-2.257000	-3.355000	1012.294983	-0.306250	0.713125	-0.293125
3.721000	7.442000	1013.942017	-0.192500	0.503125	-0.109375
12.017000	9.028000	1016.260010	-0.192500	0.450625	-0.266875
4.697000	11.468000	1012.234009	-0.306250	0.463750	-0.310625
-2.257000	3.477000	1017.541016	-0.271250	0.459375	-0.258125
2.257000	6.161000	1013.088013	-0.354375	0.665000	-0.258125
5.673000	5.490000	1014.796021	-0.223125	0.695625	-0.266875
4.636000	11.285000	1017.846008	-0.240625	0.511875	-0.262500
1.220000	5.429000	1018.090027	-0.358750	0.713125	-0.249375
5.429000	1.952000	1012.783020	-0.262500	0.603750	-0.179375
3.416000	10.675000	1014.674011	-0.516250	0.686875	-0.214375
0.610000	5.307000	1013.210022	-0.231875	0.376250	-0.240625
5.795000	0.854000	1016.565002	-0.140000	0.367500	-0.253750
6.832000	6.283000	1012.478027	-0.380625	0.463750	-0.293125
4.270000	3.904000	1009.306030	-0.428750	0.638750	-0.205625
2.196000	10.065001	1012.539001	-0.376250	0.415625	-0.319375
4.819000	8.052000	1014.979004	-0.393750	0.529375	-0.315000
2.074000	4.026000	1012.721985	-0.280000	0.612500	-0.245000
1.342000	6.710000	1015.223022	-0.271250	0.463750	-0.236250
2.806000	11.773000	1016.015991	-0.332500	0.708750	-0.214375
4.392000	-0.671000	1014.552002	-0.140000	0.385000	-0.201250
2.440000	4.209000	1017.053040	-0.328125	0.507500	-0.231875
4.148000	4.514000	1012.234009	-0.113750	0.564375	-0.135625
5.490000	9.943000	1011.502014	-0.087500	0.380625	-0.140000
3.294000	10.614000	1017.296997	-0.183750	0.669375	-0.319375
4.026000	7.808000	1017.601990	-0.135625	0.669375	-0.380625
1.708000	3.050000	1010.343018	-0.210000	0.660625	-0.205625
5.490000	5.612000	1015.040039	-0.166250	0.573125	-0.284375
7.076000	6.100000	1013.697998	-0.122500	0.468125	-0.231875
3.782000	5.490000	1012.966003	-0.231875	0.498750	-0.183750
3.050000	5.612000	1016.199036	-0.323750	0.756875	-0.227500
3.660000	4.148000	1013.332031	-0.297500	0.525000	-0.271250
1.952000	7.381000	1014.064026	-0.411250	0.568750	-0.358750
3.660000	4.270000	1015.406006	-0.380625	0.586250	-0.297500
5.124000	6.100000	1015.772034	-0.529375	0.752500	-0.297500
2.806000	0.427000	1011.989990	-0.315000	0.752500	-0.319375
6.344000	5.185000	1016.442993	-0.140000	0.603750	-0.258125
6.710000	5.246000	1016.015991	-0.196875	0.468125	-0.266875
0.427000	4.148000	1014.307983	-0.354375	0.713125	-0.240625
1.098000	4.758000	1015.650024	-0.315000	0.621250	-0.170625
-0.244000	4.514000	1014.674011	-0.297500	0.739375	-0.297500
5.917000	4.148000	1013.454041	-0.052500	0.398125	-0.214375
7.076000	5.368000	1017.541016	-0.511875	0.665000	-0.319375
0.427000	7.442000	1014.186035	-0.424375	0.761250	-0.262500
8.235000	8.540000	1020.468994	-0.415625	0.371875	-0.297500
2.135000	6.832000	1016.504028	-0.450625	0.643125	-0.240625
2.684000	7.564000	1017.174988	-0.306250	0.616875	-0.271250
8.113000	5.246000	1016.260010	-0.301875	0.494375	-0.297500
8.540000	5.246000	1012.478027	-0.472500	0.634375	-0.210000
2.867000	8.845000	1013.454041	-0.293125	0.656250	-0.201250
3.050000	5.856000	1017.174988	-0.568750	0.717500	-0.262500
9.333000	1.098000	1015.406006	-0.437500	0.686875	-0.210000
-2.013000	4.697000	1010.281982	-0.223125	0.651875	-0.223125
7.259000	8.357000	1014.613037	-0.297500	0.538125	-0.336875
3.904000	6.588000	1016.015991	-0.293125	0.678125	-0.266875
-1.525000	6.832000	1011.257996	-0.148750	0.603750	-0.262500
4.941000	6.466000	1017.480042	-0.227500	0.507500	-0.249375
3.660000	6.710000	1014.674011	-0.332500	0.634375	-0.122500
3.538000	8.418000	1019.371033	-0.328125	0.450625	-0.188125
5.490000	1.159000	1010.953003	-0.389375	0.704375	-0.192500
-0.183000	4.453000	1013.027039	-0.052500	0.463750	-0.240625
5.795000	11.651000	1016.320984	-0.148750	0.546875	-0.157500
4.392000	11.834001	1016.992004	-0.214375	0.616875	-0.249375
-0.366000	2.745000	1013.088013	-0.214375	0.433125	-0.227500
0.732000	7.869000	1013.697998	-0.091875	0.498750	-0.153125
8.235000	4.270000	1015.893982	-0.166250	0.695625	-0.170625
4.331000	7.503000	1015.528015	-0.231875	0.249375	-0.262500
5.002000	4.148000	1014.552002	-0.336875	0.586250	-0.240625
0.122000	7.137000	1012.478027	-0.275625	0.621250	-0.253750
2.989000	5.856000	1015.223022	-0.201250	0.406875	-0.367500
0.366000	8.662000	1012.721985	-0.196875	0.503125	-0.288750
2.440000	7.442000	1021.567017	-0.065625	0.350000	-0.245000
5.185000	1.037000	1013.393005	-0.210000	0.336875	-0.249375
3.294000	1.708000	1014.796021	-0.262500	0.538125	-0.284375
-0.122000	4.453000	1018.517029	-0.249375	0.638750	-0.266875
8.296000	2.074000	1015.040039	-0.196875	0.446250	-0.284375
1.647000	5.795000	1015.650024	-0.297500	0.542500	-0.258125
-1.464000	3.538000	1015.040039	-0.363125	0.560000	-0.201250
2.623000	9.211000	1015.283997	-0.188125	0.564375	-0.223125
4.148000	5.124000	1013.942017	-0.192500	0.433125	-0.140000
0.732000	4.880000	1016.747986	-0.236250	0.599375	-0.345625
1.342000	4.514000	1016.260010	-0.192500	0.752500	-0.236250
2.318000	8.723001	1015.893982	-0.052500	0.328125	-0.245000
-1.952000	6.222000	1014.552002	-0.546875	0.551250	-0.253750
1.891000	4.392000	1016.260010	-0.345625	0.647500	-0.175000
4.270000	5.856000	1011.746033	-0.319375	0.595000	-0.170625
-0.854000	5.490000	1014.491028	-0.393750	0.516250	-0.262500
7.015000	7.747000	1011.624023	-0.393750	0.599375	-0.245000
6.710000	4.392000	1015.345032	-0.284375	0.638750	-0.227500
-0.793000	5.368000	1013.697998	-0.385000	0.568750	-0.297500
-1.464000	8.235000	1015.955017	-0.481250	0.796250	-0.258125
4.575000	6.344000	1015.161987	-0.336875	0.581875	-0.210000
4.148000	8.967000	1016.869995	-0.371875	0.721875	-0.223125
4.392000	9.638000	1015.650024	-0.288750	0.608125	-0.380625
0.488000	6.588000	1017.480042	-0.245000	0.433125	-0.336875
4.209000	5.978000	1011.867981	-0.236250	0.603750	-0.170625
4.148000	6.832000	1016.687012	-0.056875	0.511875	-0.266875
3.050000	4.148000	1013.942017	-0.170625	0.319375	-0.240625
1.098000	8.357000	1017.053040	-0.301875	0.468125	-0.227500
5.551000	5.368000	1014.918030	-0.328125	0.695625	-0.271250
4.148000	8.723001	1016.747986	-0.293125	0.638750	-0.310625
5.002000	3.477000	1013.697998	-0.315000	0.494375	-0.258125
-0.305000	3.294000	1015.833008	-0.297500	0.603750	-0.205625
-0.732000	6.039000	1016.626038	-0.074375	0.599375	-0.240625
7.381000	6.222000	1015.893982	-0.345625	0.551250	-0.328125
-2.257000	8.906000	1015.161987	-0.385000	0.612500	-0.175000
7.930000	10.980000	1018.639038	-0.188125	0.481250	-0.192500
4.148000	5.185000	1007.536987	-0.271250	0.463750	-0.358750
1.220000	2.806000	1014.979004	-0.266875	0.616875	-0.315000
6.039000	3.294000	1014.918030	-0.385000	0.608125	-0.236250
3.050000	7.869000	1013.210022	-0.188125	0.673750	-0.192500
3.904000	10.126000	1013.454041	-0.210000	0.507500	-0.266875
3.782000	5.978000	1015.040039	-0.227500	0.507500	-0.214375
3.782000	6.466000	1016.626038	-0.126875	0.529375	-0.293125
3.538000	10.675000	1015.161987	-0.153125	0.411250	-0.253750
6.832000	9.211000	1016.626038	-0.179375	0.485625	-0.293125
2.684000	10.004000	1015.772034	-0.266875	0.603750	-0.406875
-0.122000	3.477000	1012.721985	-0.192500	0.459375	-0.336875
4.331000	5.246000	1014.186035	-0.183750	0.651875	-0.231875
2.806000	9.455000	1014.186035	-0.166250	0.643125	-0.218750
1.220000	5.734000	1017.663025	-0.140000	0.411250	-0.350000
5.063000	3.782000	1012.843994	-0.371875	0.656250	-0.310625
0.244000	2.318000	1013.820007	-0.463750	0.774375	-0.192500
-2.440000	5.307000	1013.575989	-0.231875	0.433125	-0.188125
