A_X[mg]	A_Y[mg]	A_Z[mg]	G_X[dps]	G_Y[dps]	G_Z[dps]	
0.061000	-14.823000	985.333008	5.320000	-5.258750	-4.458125
16.592001	6.405000	999.302002	5.320000	-5.258750	0.000000
2.928000	0.793000	1004.121033	0.577500	-0.065625	11.060000
-7.015000	-43.249001	941.473999	3.486875	-1.102500	15.220625
-2.257000	-34.709000	982.648987	0.997500	-0.087500	3.316250
9.028000	-32.939999	999.546021	1.133125	0.280000	-1.421875
-19.520000	-66.246002	976.304993	-0.415625	-1.732500	-12.691875
-16.896999	77.409004	1157.536011	0.748125	0.735000	-23.275000
-11.163000	-48.068001	987.590027	1.093750	0.568750	-7.122500
-22.509001	-50.630001	1027.057007	0.398125	0.008750	-2.751875
6.344000	-14.579000	1010.403992	1.023750	-0.205625	-1.566250
-134.199997	839.665039	-1338.889038	-11.331250	-9.222500	3.456250
135.115005	-155.061996	1515.179077	-2.380000	-8.308125	1.382500
-33.306000	-20.007999	187.574997	1.596875	-2.003750	-0.840000
-11.773000	-25.010000	871.202026	1.246875	-0.004375	-1.618750
-13.664001	-17.873001	1023.335999	0.669375	-0.048125	-7.004375
83.997002	-15.982000	1058.289062	0.428750	0.122500	-7.857500
-0.183000	-1.586000	1028.459961	2.660000	-1.045625	-2.756250
2.989000	-4.514000	1016.442993	0.389375	-0.131250	-0.988750
-0.976000	-13.115000	1009.001038	0.389375	-0.131250	-0.861875
-0.976000	-13.115000	1746.979004	0.105000	0.035000	-0.861875
17.995001	-88.023003	1746.979004	8.058750	-0.253750	1.220625
3.782000	-37.514999	1135.880981	4.676875	-0.599375	-0.301875
-5.917000	-24.766001	990.091003	1.106875	-0.205625	-0.866250
0.427000	-23.668001	1004.059998	0.398125	-0.100625	-0.892500
1.220000	-15.189000	1005.158020	0.643125	-0.231875	-0.971250
0.976000	-14.152000	1007.293030	0.857500	-0.227500	-1.001875
9.089000	-13.420000	1006.377991	0.835625	-0.227500	-0.940625
0.183000	-16.104000	1004.548035	0.778750	-0.126875	-0.896875
-6.283000	-23.851000	1002.840027	0.472500	-0.161875	-1.001875
0.915000	-17.995001	1001.986023	0.428750	-0.175000	-0.988750
0.000000	-11.529000	1005.341003	0.831250	-0.183750	-0.975625
0.976000	-16.226000	1003.816040	0.743750	-0.161875	-1.036875
-0.244000	-17.568001	1001.010010	0.656250	-0.179375	-0.840000
-0.366000	-13.603000	1004.121033	0.879375	-0.140000	-0.896875
-0.732000	-16.348000	1000.278015	0.691250	-0.196875	-0.988750
3.233000	-22.875000	1001.254028	0.555625	-0.223125	-0.966875
0.610000	-19.825001	1003.389038	0.726250	-0.183750	-0.953750
0.854000	-16.042999	1006.561035	0.730625	-0.179375	-0.958125
-2.318000	-12.993000	1005.402039	0.721875	-0.148750	-0.831250
-0.122000	-16.958000	1005.280029	1.032500	-0.271250	-0.826875
7.503000	-15.494000	995.337036	0.835625	-0.205625	-0.695625
3.538000	-11.651000	1009.184021	0.905625	-0.192500	-0.822500
3.050000	-18.361000	1002.778992	1.050000	-0.166250	-0.975625
4.026000	-14.945000	1002.108032	0.385000	0.008750	-0.988750
-0.732000	-9.943000	1006.195007	0.341250	-0.030625	-0.927500
10.858000	-30.743999	1092.204956	2.463125	-0.870625	-0.638750
1.525000	-15.616000	1019.981018	2.213750	-0.647500	-1.054375
-0.610000	-22.264999	1000.400024	1.273125	-0.293125	-0.975625
4.453000	-17.750999	1000.888000	0.809375	-0.113750	-0.936250
0.488000	-16.836000	1004.487000	0.546875	-0.087500	-0.861875
1.098000	-14.640000	1005.158020	0.752500	-0.218750	-1.041250
2.318000	-16.226000	1003.816040	0.538125	0.061250	-0.971250
0.366000	1.342000	1005.158020	0.590625	0.021875	-0.315000
23.973000	14.640000	993.263000	0.507500	-0.144375	0.533750
-0.671000	-15.616000	1004.304016	0.660625	-0.004375	-0.402500
3.111000	-17.690001	1003.937988	0.525000	-0.070000	-0.853125
0.976000	-13.725000	1006.682983	0.560000	-0.078750	-0.966875
1.830000	-14.152000	1005.645996	0.875000	-0.148750	-0.962500
1.342000	-19.398001	1004.548035	0.616875	-0.253750	-0.870625
2.440000	-10.553000	1006.012024	1.093750	-0.140000	-0.831250
-1.830000	-20.923000	1003.694031	1.089375	-0.201250	-1.015000
0.122000	-17.385000	1002.840027	0.608125	-0.262500	-1.041250
4.331000	-18.056000	1003.694031	0.861875	-0.148750	-0.953750
-3.233000	-18.300001	1004.548035	0.612500	-0.157500	-1.036875
-2.074000	-15.555000	1007.415039	0.813750	-0.183750	-0.905625
2.135000	-14.640000	1001.803040	0.468125	-0.175000	-0.888125
2.318000	-21.410999	1002.718018	0.476875	-0.118125	-0.914375
7.015000	-20.130001	1005.218994	0.678125	-0.157500	-0.918750
5.490000	-5.246000	1001.254028	0.481250	-0.083125	-2.261875
2.684000	-16.409000	999.668030	0.638750	-0.214375	-1.417500
-8.845000	-35.990002	998.936035	1.058750	-0.280000	-1.566250
-46.665001	-55.388000	1027.362061	0.905625	0.175000	-20.199375
26.962000	22.448000	931.591980	1.150625	0.021875	-31.333750
68.564003	60.817001	1092.937012	-0.153125	-0.590625	-21.813749
-0.671000	-0.488000	1011.014038	1.841875	-0.774375	-5.276250
2.501000	-21.533001	1008.574036	1.763125	-0.437500	-1.098125
4.270000	-17.995001	1004.059998	0.608125	-0.266875	-0.910000
6.710000	-10.431000	1002.718018	0.616875	-0.144375	-0.848750
4.392000	-22.387001	1009.733032	0.853125	-0.161875	-1.045625
-1.037000	-29.341000	1007.842041	0.861875	-0.140000	-0.901250
-3.782000	-4.575000	1004.059998	0.888125	-0.087500	-0.896875
4.087000	-23.668001	1005.280029	0.756875	-0.140000	-0.936250
0.854000	-18.726999	1005.158020	0.459375	-0.078750	-0.923125
-1.342000	-18.300001	1004.182007	0.660625	-0.052500	-0.905625
6.527000	-14.335000	1007.049011	0.678125	-0.236250	-1.015000
6.832000	-16.714001	1003.205994	0.686875	-0.135625	-0.599375
-2.989000	-14.457000	1003.816040	0.686875	-0.135625	0.293125
-2.989000	-14.457000	1006.134033	1.050000	-0.118125	0.293125
1.525000	-12.322001	1006.134033	1.050000	-0.126875	0.433125
3.416000	-20.313000	1001.742004	0.700000	-0.231875	0.135625
0.366000	-12.017000	1002.840027	0.503125	-0.201250	-0.406875
2.318000	-23.241001	1003.572021	0.770000	-0.087500	-0.358750
-3.355000	-24.034000	1008.390991	0.927500	-0.166250	-0.800625
-4.148000	-31.293001	1008.695984	1.054375	-0.258125	-7.048125
11.956000	-5.368000	1009.184021	-0.341250	-0.175000	-13.426875
3.477000	-18.910000	1019.798035	1.115625	-0.472500	-3.666250
-1.098000	-3.050000	1009.733032	1.321250	-0.284375	2.043125
-1.220000	-35.257999	1005.158020	1.316875	-0.310625	2.953125
1.769000	-25.010000	1005.523987	1.299375	-0.402500	1.382500
1.708000	-15.189000	1002.473999	1.260000	-0.424375	-0.376250
-5.429000	-22.509001	1004.914001	1.063125	-0.223125	-0.883750
-1.281000	-26.352001	992.653015	1.220625	-0.214375	-0.831250
6.405000	-14.030000	1002.535034	1.246875	-0.310625	-0.923125
8.174000	-19.398001	1009.611023	1.251250	-0.336875	-0.980000
-1.159000	-22.448000	1006.255981	0.787500	-0.271250	-0.853125
-3.050000	-17.019001	1003.572021	0.840000	-0.323750	-0.669375
2.989000	-8.845000	1004.182007	0.695625	-0.253750	0.039375
2.196000	-15.555000	1006.804993	0.997500	-0.205625	-0.420000
4.148000	-15.494000	1002.718018	0.717500	-0.030625	-0.297500
-2.013000	-13.786000	1006.927002	0.931875	-0.087500	0.529375
6.161000	-21.777000	1005.158020	0.840000	-0.039375	-0.490000
0.549000	-13.237000	1007.171021	1.050000	-0.070000	-0.958125
0.732000	-16.226000	1000.949036	0.980000	-0.253750	-0.888125
6.649000	-29.158001	1006.927002	0.612500	-0.262500	-0.984375
5.124000	-17.080000	1004.182007	0.704375	-0.083125	-0.940625
0.976000	-16.348000	1006.682983	0.848750	-0.249375	-0.993125
-1.220000	-22.264999	1005.158020	0.861875	-0.122500	-1.001875
1.159000	-17.995001	1003.694031	0.770000	0.004375	-0.831250
4.453000	-15.616000	1003.816040	1.001875	-0.157500	-0.739375
3.782000	-18.666000	998.936035	0.953750	-0.231875	-0.870625
2.806000	-21.106001	1003.145020	0.888125	-0.118125	-0.945000
-4.819000	-13.603000	1003.816040	0.918750	-0.201250	-0.980000
1.647000	-22.997000	1005.523987	0.761250	-0.214375	-0.988750
-2.318000	-18.117001	1002.473999	0.940625	-0.336875	-0.870625
1.403000	-11.895000	999.911987	0.826875	-0.288750	-0.826875
6.039000	-18.361000	1005.707031	0.905625	-0.035000	-0.826875
7.198000	-16.836000	1004.914001	0.818125	-0.100625	-0.958125
4.758000	-10.431000	1002.718018	0.805000	-0.288750	-1.080625
-5.673000	-17.385000	1001.986023	0.940625	-0.280000	-1.071875
-2.013000	-19.520000	1001.497986	0.691250	-0.091875	-0.931875
3.965000	-17.690001	1001.864014	1.225000	-0.708750	-0.958125
5.246000	-18.422001	1001.497986	0.726250	-0.253750	-0.875000
1.464000	-16.592001	998.936035	0.638750	-0.096250	-0.770000
0.244000	-17.202000	1002.656982	0.673750	0.000000	-0.914375
8.845000	-8.113000	1006.317017	0.459375	-0.109375	2.786875
381.981995	113.826004	1006.744019	0.083125	0.052500	9.336250
-264.312988	-24.888000	996.191040	0.201250	0.581875	22.426250
-222.772003	-8.540000	966.850037	0.730625	-0.144375	21.634375
-13.725000	-13.725000	971.303040	1.977500	1.793750	18.353125
-204.106003	-75.884003	904.325012	2.331875	-0.665000	20.951876
-521.489014	-546.377014	77.165001	-3.788750	0.000000	20.693750
170.678009	209.962006	998.265015	-0.363125	0.052500	15.015000
102.175003	-21.716000	1255.928955	0.245000	0.826875	18.541250
-372.527008	-235.399002	1096.536011	1.251250	-0.179375	20.973749
-222.650009	-128.832001	1039.013062	0.113750	-0.433125	8.820000
-38.430000	83.447998	1015.710999	-3.136875	1.338750	-15.999375
96.501999	96.014000	987.163025	-0.144375	-0.236250	-0.721875
243.817001	72.651001	981.062988	0.726250	-0.306250	22.049999
-427.244019	-188.490005	1181.813965	0.796250	-0.682500	34.116249
-208.498001	-131.149994	1066.584961	0.905625	-0.245000	1.570625
103.639000	98.332001	1037.854004	0.853125	0.643125	-22.968750
168.665009	140.178009	1004.669983	0.853125	0.175000	-8.378125
-13.969000	-51.667000	1003.694031	2.060625	-1.106875	18.396875
-158.904999	-180.316010	985.393982	1.785000	-0.161875	12.652500
-147.742004	-98.271004	1053.286987	-1.146250	1.181250	-14.568750
450.240997	248.697006	1058.289062	0.813750	-0.695625	-34.155624
309.636017	176.350998	1026.874023	2.572500	-1.395625	-3.250625
-2.318000	4.880000	1162.171997	2.572500	-1.395625	43.964375
-2.318000	4.880000	976.976013	4.392500	-1.443750	43.964375
-80.398003	-93.878998	976.976013	-1.365000	1.776250	12.451250
-168.298996	-37.271000	903.348999	-1.780625	2.620625	-31.276875
315.065002	176.167999	1198.161987	-2.222500	2.288125	-44.463123
338.976990	160.673996	1023.824036	3.303125	-1.859375	-3.084375
-5.368000	0.976000	1321.687012	6.426875	-2.261875	54.910625
-203.434998	-367.524994	936.350037	-1.465625	2.471875	34.059376
-182.817001	-91.500000	1187.974976	-0.161875	3.005625	-27.168751
361.364014	147.193008	1025.471069	1.662500	-0.367500	-45.968124
370.209015	243.451004	1150.947998	10.937500	-6.125000	7.656250
-118.035004	14.091001	969.229004	7.126875	-3.346875	75.048752
-42.944000	-334.463013	1017.906982	0.918750	0.564375	29.728125
-132.796997	-68.137001	1076.161987	-7.424375	4.217500	-21.730625
166.712997	81.862000	1119.716064	-3.561250	0.704375	-48.439999
90.889999	113.947998	1011.257996	2.730000	-2.143750	-7.000000
36.539001	-76.860001	1003.999023	2.095625	-1.841875	25.777500
-68.747002	-100.710999	1000.888000	-0.568750	0.638750	6.658750
-162.992004	-47.396999	1054.385010	-10.605000	5.188750	-36.268749
592.432007	369.050018	1140.151001	-0.818125	0.984375	-30.038750
311.954010	335.134003	859.246033	3.561250	-1.863750	-1.435000
-370.391998	-254.248001	981.978027	4.851875	-1.653750	40.424999
-322.567993	-272.182007	995.520020	-2.730000	1.688750	0.730625
-154.818008	-88.816002	1033.401001	5.162500	-2.940000	-30.786875
509.106018	328.545990	1095.072021	2.738750	-1.050000	-25.746876
338.550018	314.881989	956.358032	4.073125	-1.111250	2.900625
-10.553000	-15.921000	984.906006	7.385000	-1.977500	59.053749
-425.597015	-324.764008	996.617981	2.546250	-0.476875	26.075001
-205.264999	-4.270000	1296.067017	-9.856875	6.391875	-22.076250
143.167007	112.667000	1671.094971	-2.620625	1.802500	-37.148125
199.714005	113.582001	1031.144043	2.537500	0.205625	-28.214375
217.831009	230.153000	1031.754028	1.106875	-0.345625	-10.360000
61.610001	19.580999	815.692017	2.327500	-0.446250	14.249375
-214.415009	-225.639008	955.869995	2.261875	0.341250	27.453125
-59.902000	-85.888000	997.289001	0.958125	0.271250	2.445625
22.875000	-16.287001	930.494019	0.616875	0.284375	-2.078125
7.198000	2.989000	997.655029	1.098125	-0.266875	-7.271250
5.978000	-11.956000	1015.955017	0.205625	-0.201250	-6.741875
