AccX[mg]	AccY[mg]	AccZ[mg]	GyrX[dps]	GyrY[dps]	GyrZ[dps]	
-159.027008	-210.328003	1177.483032	-0.888125	28.577499	32.265625
-209.169006	-497.760010	900.665039	13.545000	-45.688126	-4.515000
-197.762009	-512.400024	1076.711060	16.541876	-45.530624	4.742500
-194.041000	-510.020996	1036.695068	22.820000	-36.076248	12.333125
-185.867004	-373.442017	1064.083984	13.041875	-31.924376	25.261250
-228.811005	-378.200012	1145.152954	9.730000	-21.805000	41.396252
-240.279007	-213.682999	1164.551025	37.099998	-10.635625	44.450001
-309.087006	-159.027008	1066.401978	29.124374	2.747500	30.082500
-285.662994	-219.844009	1018.333984	-7.634375	0.030625	13.855625
-336.049011	-273.463013	960.200989	-22.321251	1.920625	29.959999
-310.734009	-344.222992	995.093018	-24.583124	2.861250	31.696875
-296.947998	-354.593018	1041.880005	-17.985624	6.938750	34.177502
-271.084015	-262.299988	1003.145020	-13.116250	15.583750	50.688751
-312.502991	-300.791016	1058.776978	-35.599377	14.266875	51.839375
-325.069000	-306.524994	1040.171997	-23.270624	18.200001	48.685001
-412.299011	-211.121002	960.140015	0.665000	17.101875	56.380627
-406.199005	-100.040001	994.483032	-13.803125	18.703125	52.508751
-490.623016	-244.854004	1075.125000	-27.129375	24.924376	42.039375
-565.775024	-36.660999	986.736023	-11.908750	43.028126	29.049999
-579.622009	-132.736008	1038.769043	-21.678125	45.718750	14.468125
-549.731995	-59.170002	928.541992	-3.386250	61.219376	12.814375
-535.824036	-21.533001	811.726990	-0.940625	65.205002	-5.906250
-608.475037	-112.972000	816.851013	5.801250	57.365002	-16.038750
-505.507019	54.656002	666.302979	16.703751	58.051876	-19.989374
-437.431000	142.740005	619.515991	-8.023750	42.761250	-35.608124
-399.733002	44.652000	614.757996	-15.579375	38.110626	-60.340000
-349.591003	-91.927002	498.187012	-12.009375	26.162500	-88.659378
-327.325989	-281.575989	447.373993	-17.031876	16.629375	-99.570625
-313.417999	-466.162018	540.947998	28.682501	-4.873750	-91.336876
-331.351990	-538.812988	559.187012	34.899376	-2.738750	-75.389999
-295.911011	-528.015991	573.278015	45.031876	-20.330626	-63.122501
-354.837006	-783.544983	726.997986	35.244999	-30.747499	-58.603127
-271.144989	-561.749023	742.369995	57.946877	-30.091249	-18.042500
-292.860992	-674.171997	903.104980	39.173752	-45.014374	-20.028749
-286.394989	-430.294006	886.330017	56.993126	-38.976875	10.517500
-253.272003	-433.709991	1038.708008	42.818127	-43.684376	-4.681250
-369.598999	-439.139008	969.473022	34.820625	-34.164375	4.733750
-248.087006	-535.213989	1008.452026	15.802500	-30.078125	-0.700000
-249.612000	-419.497009	914.390015	16.436874	-27.759375	22.675625
-193.186996	-379.602997	998.875000	9.012500	-29.614374	30.187500
-220.880997	-373.259003	954.955017	16.677500	-23.537500	32.025002
-205.936005	-329.278015	912.255005	9.345000	-27.186251	43.596874
-181.841003	-252.173996	1028.032959	9.502500	-30.502501	50.124374
-200.324005	-282.674011	953.491028	19.626249	-23.467501	46.348751
-187.026001	-239.608002	942.023010	7.455000	-26.853750	55.798752
-189.344009	-172.569000	998.570007	9.620625	-26.709375	60.038124
-209.291000	-102.358002	999.241028	17.819374	-16.725624	63.398125
-242.292007	-107.360001	1100.256958	8.395625	-17.219999	64.452499
-215.330002	-102.053001	1108.308960	10.902500	-6.011250	59.666248
-263.886017	-46.542999	1019.492981	5.083750	-2.940000	57.010624
-250.100006	85.583000	1047.004028	10.132500	-1.601250	49.551250
-245.158997	-52.948002	1086.227051	4.908750	0.686875	32.913124
-309.026001	-133.346008	1111.603027	-1.872500	2.476250	28.035000
-291.274994	-112.789001	1174.128052	-0.008750	5.880000	28.021875
-280.843994	-55.998001	1218.170044	-4.952500	12.796875	28.638750
-308.233002	-42.090000	1211.399048	-15.277500	24.023125	22.369375
-360.022003	25.559000	1118.922974	-20.041876	45.600624	12.460000
-342.942017	-0.549000	1025.166016	-37.353748	43.058750	9.673125
-390.156006	-48.922001	991.738037	-43.824375	32.799374	8.995000
-375.272003	-66.489998	916.220032	-38.193748	51.310001	-4.659375
-464.515015	-161.893997	906.155029	-34.208126	52.504375	-13.776875
-444.507019	-128.039001	847.351013	-34.291248	47.915001	-7.931875
-513.192993	-183.915009	857.354980	-40.748749	44.743126	-12.276250
-505.873016	-145.850998	841.434021	-21.135626	43.124374	-12.328750
-493.612000	-116.144005	835.273010	-23.288124	39.331249	-16.152500
-450.972992	-174.764999	661.789001	-27.978125	30.463125	-28.183750
-433.222015	-211.975006	580.841980	-68.123123	17.469376	-33.481876
-339.282013	-268.949005	623.664001	-38.171875	17.311874	-37.012501
-378.382996	-225.334000	478.300995	-30.051874	10.876250	-41.868752
-442.981995	-394.059998	593.468994	-4.186875	2.870000	-45.985626
-425.109009	-349.286011	627.507019	14.538125	-1.999375	-42.778751
-478.179016	-320.006012	703.208008	23.734375	-6.615000	-45.998749
-468.907013	-378.748993	801.356995	26.770624	-12.455625	-43.798126
-520.940002	-236.619003	781.653992	37.668751	1.185625	-34.531876
-338.794006	-184.525009	855.952026	44.594376	0.201250	-47.840626
-360.449005	-336.903015	718.275024	29.395624	0.533750	-53.051250
-280.050995	-618.296021	936.716003	25.003124	-6.431250	-70.008751
-294.752014	-538.507996	838.322998	24.526251	0.214375	-43.369373
-138.958008	-591.882996	966.789001	2.034375	-6.641250	-47.770626
-112.118004	-822.096985	927.505005	1.706250	4.510625	-51.769375
-93.147003	-727.486023	800.075989	-2.576875	2.668750	-21.866249
-62.952000	-543.997986	737.002014	9.633750	5.298125	-7.564375
-62.952000	-585.905029	747.311035	18.965626	2.423750	-4.532500
-101.320999	-361.791016	615.429016	32.900002	3.473750	10.469375
-200.751007	-82.228004	657.763000	56.349998	-1.680000	20.230000
-179.584000	-293.714996	865.528992	49.358749	-41.584373	-24.963751
-193.858002	-344.040009	918.965027	38.587502	-43.452499	-19.678749
-251.137009	-342.820007	969.595032	53.523750	-43.251251	-10.885000
-102.906998	-324.764008	1077.504028	40.197498	-50.837502	-5.153750
-153.231995	-392.291016	1270.935059	55.825001	-43.671249	-12.105625
-189.466003	-465.369019	1297.958008	44.498123	-36.719376	-17.049376
-72.406998	-409.248993	1434.354004	37.380001	-22.955626	2.266250
-113.399002	-347.944000	1259.406006	32.068748	-3.338125	11.475625
-39.650002	-295.057007	1152.167969	-0.818125	-0.144375	16.362499
39.833000	-297.802002	956.663025	-0.201250	13.177500	19.985001
113.704002	-439.566010	1077.138062	-2.730000	5.131875	19.459999
93.452003	-426.390015	1083.665039	4.388125	14.393750	33.713749
-3.782000	-293.714996	1029.253052	9.541875	20.562500	54.368126
-35.257999	-235.947998	1126.730957	3.596250	12.678750	58.038750
-122.061005	-163.236008	1065.791992	-3.342500	18.007500	59.500000
-200.201996	-111.203003	896.455994	-18.777500	16.030001	68.442497
-257.359009	89.914001	922.807983	-2.948750	13.807500	75.595627
-299.571014	234.789001	791.963013	-2.463125	14.647500	72.721252
-401.319000	47.458000	960.018005	-29.623125	-6.903750	56.984375
-354.959015	64.843002	999.911987	-6.365625	-5.075000	31.290001
-339.648010	-7.137000	1052.921021	3.749375	6.816250	28.888124
-354.287994	75.945000	1067.255981	21.105000	14.573125	20.343750
-384.421997	-153.048996	1193.891968	3.132500	11.068750	5.591250
-360.326996	-280.112000	1318.209961	-15.312500	19.923750	12.285000
-377.589996	-157.867996	1202.493042	-6.868750	35.962502	13.746250
-355.934998	-135.481003	1226.405029	-23.069374	38.508751	-1.623125
-337.757019	-179.828003	1247.389038	-31.530624	48.216873	-2.161250
-372.343994	-64.965004	1026.995972	-37.546249	61.420624	3.233125
-373.136993	-32.146999	796.049988	-42.323750	68.468750	-0.188125
-377.101990	-74.603004	538.690979	-53.335625	58.957500	-11.593750
-348.432007	-226.126999	568.642029	-65.896248	36.443748	-16.362499
-346.968018	-206.850998	448.777008	-44.996876	27.273750	-18.169374
-391.985992	-272.059998	421.571014	-28.306250	6.505625	-23.660000
-369.233002	-376.308990	625.494019	-11.545625	-5.945625	-22.071875
-393.266998	-403.027008	619.210999	5.534375	-7.280000	-20.991249
-431.696991	-497.515991	773.723999	8.456875	-11.965625	-12.048750
-433.832001	-411.811005	813.557007	16.104376	-8.522500	0.678125
-476.959015	-419.985016	836.127014	7.713125	-10.307500	-2.296875
-468.296997	-355.446991	857.476990	10.128125	-5.376875	1.872500
-459.390991	-387.593994	894.077026	1.198750	-7.188125	1.557500
-464.454010	-341.477997	887.122986	0.402500	-2.633750	3.552500
-460.733002	-343.186005	845.033020	-2.226875	-0.721875	0.376250
-481.351013	-365.572998	858.148010	-0.826875	1.706250	3.093125
-462.196991	-280.904999	794.952026	1.010625	4.462500	2.073750
-477.873993	-367.890991	832.833008	-3.421250	-0.568750	-2.187500
-450.058014	-356.118011	825.879028	-1.067500	-0.004375	-0.538125
-469.944000	-346.541016	813.190979	0.070000	0.813750	-2.034375
-449.631012	-352.701996	835.151001	-1.833125	0.756875	-0.581875
-463.722015	-336.354004	826.489014	-1.290625	2.563750	-0.826875
-468.907013	-373.747009	819.535034	-2.541875	2.463125	-1.850625
-469.212006	-358.313995	810.140991	-1.868125	1.986250	-0.625625
-457.744019	-369.476990	819.901001	-2.436875	1.098125	-2.231250
-476.776001	-400.770020	826.733032	-3.237500	-0.166250	0.345625
-454.877014	-345.321014	819.535034	1.697500	2.336250	1.172500
-471.774017	-332.205994	806.298035	-2.016875	1.474375	1.763125
-460.550018	-341.539001	774.455994	-3.456250	0.236250	-1.474375
-466.833008	-363.132996	770.674011	1.837500	-2.178750	-2.708125
-506.483002	-302.437988	915.366028	6.308750	-3.027500	-0.599375
-517.828979	-291.213989	949.343018	1.211875	0.367500	-4.029375
-705.038025	-220.759003	1013.697998	10.705625	7.630000	-3.994375
-625.981995	128.770996	932.934021	19.976250	22.649376	0.000000
-565.713989	-2.013000	821.426025	-0.065625	25.112499	-43.920624
-594.872009	-123.647003	644.953003	-1.570625	23.931250	-56.043751
-438.468018	-120.231003	709.491028	3.994375	15.907500	-65.996872
-481.229004	-213.500000	631.716003	8.242500	13.238750	-76.833748
-330.985992	-448.716003	834.846008	-0.682500	-3.233125	-88.703125
-207.278000	-765.733032	745.419983	-3.898125	5.022500	-92.491875
-112.118004	-868.578979	864.492004	-10.552500	5.941250	-50.780624
-200.385010	-744.322021	751.885986	6.046250	12.350625	-24.578751
-164.882996	-562.054016	756.583008	-1.400000	3.583125	-11.081875
-273.890015	-606.156982	754.082031	1.308125	-0.822500	-10.368750
-257.907990	-484.950012	728.278992	3.517500	-3.403750	-2.191875
-275.110016	-440.420013	697.229980	9.633750	-1.754375	-1.715000
-259.981995	-397.354004	662.093994	17.276875	-4.375000	-2.611875
-212.768005	-219.294998	554.246033	36.294998	-6.562500	2.953125
-291.824005	-268.644012	524.112000	35.599377	-23.795626	-9.773750
-266.570007	-237.229004	723.643005	70.678123	-50.898750	-18.939375
-228.811005	-247.111008	872.848999	65.974998	-64.133125	-16.935625
-206.119003	-269.071014	1187.853027	58.856876	-65.830627	-22.150625
-229.542999	-408.944000	1212.619019	51.253124	-54.245625	-31.224375
-173.667007	-441.640015	1314.977051	40.490623	-38.863125	-19.945625
-159.453995	-495.990997	1337.058960	37.121876	-28.214375	-13.746250
-30.439001	-260.653015	1260.381958	29.316875	-8.500625	16.843750
-46.604000	-326.350006	1151.313965	3.587500	-3.591875	0.157500
-7.015000	-422.730011	1089.582031	-13.593125	-5.306875	5.022500
124.867004	-483.730011	1135.332031	-1.771875	0.787500	17.421249
199.165009	-329.033997	971.608032	14.205625	21.371876	40.503750
86.132004	-474.397003	950.319031	0.293125	16.795626	46.501877
147.986008	-409.614990	927.505005	11.904375	10.307500	76.614998
31.537001	-222.528000	1004.182007	26.145000	13.711250	84.192497
-123.220001	-171.471008	952.454041	17.198126	8.583750	87.915627
-173.484009	25.498001	964.044006	6.846875	4.843125	105.875000
-324.580994	103.700005	885.720032	3.346875	5.683125	106.391251
-336.049011	175.740997	1007.109985	3.460625	-4.366250	96.993752
-411.872009	307.256989	975.512024	12.315625	6.453125	97.614998
-382.287018	224.663010	1111.480957	3.456250	6.243125	64.356247
-383.201996	163.602005	1109.468018	17.346874	20.536249	29.351875
-419.497009	27.023001	1125.693970	0.266875	21.118126	6.811875
-459.024994	-15.433001	1202.187988	-8.146250	25.221874	11.357500
-446.398010	95.038002	1239.703003	-13.212500	30.121876	3.285625
-420.960999	-67.892998	1301.130005	-34.877499	34.348125	-17.990000
-374.662018	-36.600002	1265.872070	-41.781250	51.681873	-9.594375
-391.253998	108.763000	994.117004	-48.641251	65.813126	-12.477500
-403.515015	-65.391998	976.000000	-58.415001	57.421875	-23.891874
-387.350006	-20.496000	831.307983	-51.563751	63.328125	-19.158125
-263.337006	-152.255997	672.036987	-70.621246	50.281876	-34.641251
-354.532013	-148.412994	406.015991	-61.810001	44.121876	-32.020626
-421.876007	-274.743988	393.877014	-52.731876	22.391251	-40.722500
-427.670990	-416.752014	545.705994	-21.993126	16.471874	-38.136875
-466.955017	-404.917999	547.901978	5.250000	11.165000	-30.235624
-501.664001	-366.670990	698.083984	18.856251	8.133125	-25.134375
-606.035034	-171.593002	678.442017	38.521873	11.515000	-14.752500
-573.643982	74.664001	748.897034	45.963749	6.763750	-14.805000
-542.656006	-196.237000	868.518005	31.351250	3.543750	-63.293125
-543.022034	-137.615997	753.289001	41.750626	8.977500	-59.189377
-350.018005	-489.220001	862.906006	22.076250	7.905625	-86.349373
-209.718002	-717.177002	941.718018	-1.693125	2.681875	-89.766251
-275.476013	-784.643005	819.840027	4.952500	11.987500	-75.617500
-285.662994	-759.999023	759.328003	2.651250	3.841250	-48.956249
-202.703003	-628.726990	881.694031	11.961250	1.977500	-23.489374
-171.776001	-469.516998	825.513000	12.875625	7.669375	-11.138750
-283.406006	-257.602997	593.530029	19.556250	13.523125	-6.741875
-232.959000	-97.417000	546.437988	26.000626	-6.741875	-15.680000
-276.756989	-303.048004	602.619019	14.861875	-27.711250	-35.796249
-251.076004	-492.696991	852.169983	32.615623	-37.340626	-34.059376
-203.251999	-497.760010	930.616028	42.857498	-50.994999	-42.109375
-160.063995	-690.825012	1047.552979	21.262501	-57.036877	-38.946251
-151.462997	-506.544006	1070.244995	45.513126	-35.634377	-7.201250
-127.063004	-536.799988	1146.067993	31.946251	-38.858749	-10.443125
70.882004	-591.882996	1340.230957	22.172501	-27.435625	-6.085625
-34.892002	-636.718018	1170.833984	24.364374	-1.618750	-2.555000
-17.019001	-541.130981	1035.597046	9.646875	10.959375	30.471874
78.750999	-348.493011	925.369995	16.231251	14.700000	56.249374
13.054000	-272.791992	855.647034	20.838125	17.635626	57.846249
-6.893000	-296.277008	947.635010	14.533750	-2.358125	66.329376
-127.306999	-319.945007	917.317993	28.529375	-3.955000	62.251877
-155.733002	-266.752991	975.390015	19.989374	-11.725000	77.258125
-190.442001	-129.442001	1112.761963	21.385000	-7.065625	92.894379
-328.179993	38.186001	940.497986	31.508751	5.136250	93.393127
-291.885010	28.243000	1067.134033	5.801250	-7.691250	76.225624
-393.266998	80.459000	1083.604004	7.376250	-1.911875	65.988129
-408.944000	95.770004	1068.354004	13.046250	4.790625	48.011250
-409.188019	-0.366000	1150.886963	-9.817500	6.903750	41.418125
-411.261993	65.574997	1110.993042	-5.044375	25.016251	34.934376
-383.324005	-144.753006	1171.749023	-26.652500	24.766874	14.542500
-435.722992	-117.242004	1081.224976	-17.145624	42.503124	20.173124
-428.647003	-83.875000	1082.140015	-20.978125	47.429375	18.746876
-433.222015	-151.097000	1052.128052	-23.843750	55.562500	16.038750
-465.674011	-71.553001	901.031006	-19.346251	64.264374	19.424999
-416.446991	15.311000	828.807007	-14.100625	65.870003	18.204374
-447.007996	-9.455000	751.031982	-15.286250	56.455002	11.436250
-479.216003	86.681000	654.286011	-17.123751	52.036251	6.251875
-529.723999	46.299000	633.911987	-16.270624	34.413750	-13.190625
-573.949036	60.207001	650.992004	-4.795000	18.904375	-37.213749
-628.604980	13.054000	742.492004	0.074375	10.001250	-52.373123
-621.163025	-28.121000	705.221008	10.657500	8.575000	-70.678123
-561.200012	-122.366005	756.216980	5.355000	4.204375	-82.569374
-427.122009	-356.484009	846.679993	-11.466875	-2.148125	-92.260002
-382.470001	-426.938995	725.595032	-7.713125	4.528125	-82.385628
-301.401001	-487.877991	769.820007	-3.517500	-1.054375	-70.800629
-226.554001	-354.226990	738.221985	29.400000	5.744375	-50.216251
-151.402008	-186.050003	722.728027	30.983749	-3.145625	-42.511875
-207.583008	-203.251999	751.398010	23.848125	-6.947500	-44.292500
-351.665009	-432.002014	773.236023	29.658125	-27.177500	-67.309372
-328.119019	-489.158997	865.712036	37.200626	-34.028751	-56.599377
-280.234009	-755.057983	991.616028	13.965000	-37.559376	-55.553749
-326.472015	-622.017029	947.147034	48.146873	-22.561874	-13.895000
-261.628998	-532.286011	1021.750000	17.810625	-31.272499	1.741250
-180.865005	-372.770996	1024.556030	20.851250	-26.411875	23.205000
-239.669006	-238.266006	922.625000	22.649376	-24.933125	22.894375
-139.018997	-354.226990	1020.835022	16.778126	-32.042500	13.803125
-174.460007	-402.600006	1100.317993	24.460625	-22.785000	22.312500
-203.984009	-315.492004	1053.531006	30.196251	-13.934375	38.014374
-230.031006	-334.279999	1063.839966	16.498125	-4.396875	62.890625
-328.058014	-302.559998	1040.354980	25.445000	5.241250	71.811249
-239.729996	-302.194000	1328.031006	12.105625	4.480000	74.943748
-304.024017	-120.902000	1203.774048	28.940624	34.037498	75.770622
-405.345001	38.003002	1060.790039	5.998125	40.840626	78.242500
-374.417999	49.653999	1121.546021	-32.103748	40.407501	69.597504
-450.424011	35.624001	919.880005	-30.703751	43.146252	58.292500
-443.897003	5.246000	957.395020	-39.466873	37.463123	51.310001
-566.080017	23.241001	844.850037	-35.087502	42.498749	51.541874
-733.463989	162.016006	941.535034	-21.446251	23.730000	20.330626
-671.366028	124.988998	852.109009	-29.894375	31.841249	-3.473750
-612.195984	131.455002	843.812988	-33.136250	33.018124	-19.026875
-559.309021	120.719002	734.074036	-29.785000	38.482498	-37.060623
-521.000977	63.867001	641.720032	-33.442501	30.143749	-49.713123
-419.375000	-21.899000	636.351990	-31.644375	22.417500	-63.157501
-405.528015	-143.837997	612.135010	-12.696250	17.451876	-73.508751
-374.174011	-221.307999	593.651978	-1.443750	8.286250	-72.616249
-340.196991	-351.420990	700.158020	4.620000	-3.049375	-77.625626
-347.578003	-373.136993	701.072998	24.202499	-1.631875	-60.865002
-279.929016	-247.416000	728.583984	47.875626	-14.179375	-43.119999
-283.528015	-351.054993	856.867004	31.893749	-28.673750	-55.986874
-270.108002	-313.235016	786.229004	35.831249	-27.291250	-46.781876
-229.787003	-519.476013	1071.343018	20.667500	-45.228748	-58.904999
-256.627014	-467.442993	950.562988	27.986876	-24.915625	-32.003124
-234.910995	-304.329010	909.449036	37.143749	-25.633125	-23.178749
-223.260010	-649.283997	1148.447021	5.241250	-38.539375	-37.279373
-227.408005	-368.317993	877.729004	30.834999	-14.791875	-0.603750
-158.783005	-308.537994	900.786987	16.191875	-28.266874	2.117500
-163.785004	-463.722015	947.452026	16.940001	-29.028126	22.106874
-172.203003	-441.701019	1015.467041	12.363750	-30.935625	42.240623
-138.042999	-413.458008	1108.979980	11.563125	-26.569374	59.718750
-184.951996	-266.143005	1033.218018	16.629375	-11.453750	78.898750
-209.169006	-227.835007	1051.945068	10.784375	-8.780625	82.403122
-239.363998	-260.347992	1139.968018	4.221875	-8.439375	64.500626
-258.274017	-219.539001	1005.585022	1.605625	2.800000	65.130623
-305.854004	-268.156006	1070.367065	-17.338125	-2.795625	70.551247
-300.912994	-142.496002	1140.029053	-6.593125	10.058125	76.496872
-379.420013	-174.337997	1056.031982	-16.257500	18.519375	65.699371
-416.507996	-21.228001	1014.369019	-28.074375	21.013124	61.158127
-433.222015	-63.257000	1010.526001	-29.365000	23.721251	41.593124
-488.671021	-83.814003	931.104004	-33.420624	29.491875	29.986250
-499.162994	-92.415001	962.213989	-32.160625	28.848749	17.097500
-552.476990	-135.725006	960.750000	-28.594999	27.391874	5.718125
-536.556030	-127.917000	966.911011	-27.925625	37.161251	-1.649375
-547.109009	-44.713001	903.288025	-22.264376	43.588123	-8.942500
-571.875000	-36.783001	872.299988	-21.323750	44.152500	-23.743126
-550.403015	-62.646999	821.791992	-16.843750	54.740002	-33.687500
-521.306030	-29.585001	649.772034	0.109375	53.974377	-62.733124
-449.752991	-165.371002	660.507996	6.803125	47.145000	-78.977501
-436.515991	-161.345001	560.773010	34.404999	43.308125	-89.018127
-291.640991	-186.477005	684.298035	35.923126	20.702499	-95.396873
-144.753006	-358.436005	856.317993	44.038750	13.396250	-108.093124
-218.929001	-268.156006	678.991028	62.873123	21.227501	-94.718750
-78.323997	-236.070007	816.179993	41.330624	-15.903125	-95.628754
-174.460007	-445.848999	935.496033	50.575001	-10.920000	-103.858124
-253.760010	-175.130997	654.408020	72.489372	1.159375	-77.879372
-100.894005	-558.942993	1091.961060	19.105625	-46.134377	-113.465622
-263.337006	-188.673004	662.520996	63.857498	-6.908125	-54.101250
-268.033997	-862.113037	1108.004028	6.475000	-47.709373	-106.036873
-315.492004	-615.856018	791.475037	34.518749	-5.403125	-34.308750
-83.692001	-657.153015	848.510010	15.763125	-19.123125	-22.360624
19.764000	-998.447998	1187.670044	15.050000	-32.751251	-15.911875
-2.501000	-585.843994	963.739014	30.476250	-0.704375	41.807499
87.718002	-524.966003	1008.940002	11.383750	-18.217501	49.376251
137.067001	-426.695007	1148.751953	23.121876	-11.204375	73.574371
80.946999	-210.572006	930.616028	27.138124	11.191250	94.023125
137.555008	-247.660004	1055.056030	14.875000	1.977500	90.873123
55.998001	-244.548996	829.661011	13.706875	-3.508750	79.078125
144.203995	-62.220001	1069.756958	14.988750	-15.540000	102.466873
28.975000	168.481995	1015.101013	39.886875	9.043125	91.214378
-182.085007	150.059998	996.007996	13.448750	8.395625	82.468750
-124.988998	306.463989	1152.290039	-0.091875	13.995625	93.865623
-308.843018	288.529999	909.692993	3.123750	24.666250	79.716873
-287.493011	136.578995	872.971008	-11.423125	-1.198750	58.021252
-254.858002	110.105003	890.600037	-22.395624	-0.336875	54.543125
-365.268005	-144.020996	827.281982	-17.281250	-10.355625	36.636250
-494.649017	-112.911003	901.518982	-4.965625	-14.013125	82.906250
-548.207031	-235.337997	1052.250000	-11.698750	-29.588125	75.980621
-516.059998	-44.225002	1136.125000	-15.050000	-14.966875	92.925003
-601.765015	63.562000	997.228027	-22.741249	-11.790625	66.141251
-556.197998	37.514999	1267.519043	-17.513124	-16.187500	45.368752
-544.608032	272.243011	1118.435059	-10.228750	15.395625	36.553123
-607.926025	130.296005	1048.041016	-34.334999	7.148750	5.740000
-575.473999	163.236008	1034.072021	-30.344999	19.858126	-6.273750
-521.976990	177.876007	853.085022	-24.228750	21.424376	-36.631874
-306.342010	80.825005	948.367004	-31.889376	17.381874	-51.467499
-283.101013	75.517998	754.265015	1.443750	26.311251	-70.866249
-118.156998	63.867001	830.697998	-2.817500	11.239375	-76.374374
-19.825001	10.919000	897.371033	7.573125	9.130625	-96.949997
16.896999	-87.108002	913.048035	3.031875	-0.774375	-96.569374
77.348000	-136.395996	997.289001	9.218125	4.418750	-84.489998
25.620001	-123.585999	962.335999	34.816250	18.138750	-76.986877
1.647000	-75.274002	957.090027	39.388126	11.611250	-72.016876
93.085999	37.393002	1140.822021	32.173752	6.842500	-79.616249
-169.275009	-254.492004	875.044983	20.387501	-3.696875	-92.382500
-38.125000	-396.988007	1058.472046	4.265625	-18.602501	-90.938751
-9.089000	-450.363007	892.307983	15.347500	-5.162500	-60.221874
27.632999	-662.520996	992.775024	-21.126875	-19.757500	-51.939999
42.212002	-545.888977	872.726990	9.520000	-14.879375	-12.967500
49.348999	-554.794983	998.325989	13.816250	-24.482500	13.956250
44.408001	-467.321014	1054.140991	-2.852500	-26.875626	28.385000
-10.065001	-479.154999	1041.818970	1.150625	-25.803749	37.725624
-36.417000	-406.382019	1024.433960	-3.460625	-20.689375	63.691250
-80.581001	-334.584991	975.390015	-7.616875	-11.313750	96.136253
-125.050003	-313.235016	845.887024	-22.251249	-12.258750	109.445000
-173.240005	-303.048004	1022.054993	-8.076250	-29.137501	106.281876
-183.305008	-119.071999	1048.833984	22.968750	-3.062500	106.610001
-315.796997	-16.409000	993.018982	22.203125	4.313750	101.605003
-318.175995	29.158001	1077.077026	-12.376875	-10.071250	74.186874
-382.835999	-8.723001	1039.013062	-11.589375	-0.686875	43.330002
-323.300018	148.108002	1097.878052	-21.350000	-0.153125	40.569374
-282.856995	15.311000	1092.998047	-47.035625	8.763125	14.516250
-355.080994	-179.766998	947.879028	-13.510000	24.036249	-17.088751
-154.330002	-7.747000	1022.238037	-27.588751	11.856250	-22.251249
-143.960007	-72.468002	875.044983	-6.090000	15.811250	-43.570625
-76.432999	0.488000	978.195984	-7.402500	-5.070625	-62.146873
39.589001	-7.137000	961.604004	-23.178749	-6.400625	-70.735001
22.326000	-120.779999	843.325012	-24.434376	-13.934375	-83.658752
141.214996	-172.386002	942.145020	-54.035625	-33.753124	-76.308746
236.497009	-427.792999	1012.539001	-67.134377	-40.184376	-93.633751
127.978004	-416.141998	980.880005	-6.300000	-3.526250	-93.257500
249.490005	-374.174011	955.565002	4.939375	13.527500	-87.106247
135.968994	-382.165009	940.070984	13.160000	22.203125	-57.255627
29.036001	-593.591003	1068.781006	-6.781250	15.798125	-60.046875
-25.071001	-443.653015	946.354004	19.083750	41.833752	-36.907501
-12.444000	-470.371002	823.255981	-1.015000	32.213123	-56.284374
-66.917000	-754.509033	893.710999	-21.328125	10.180625	-56.188126
-5.978000	-506.421997	790.377014	-7.223125	20.365625	-16.130625
44.834999	-704.733032	797.575012	-23.743126	-1.290625	-32.265625
117.852005	-782.142029	967.825989	-7.586250	2.940000	-9.248750
146.400009	-541.375000	843.752014	26.971874	23.795626	13.300000
113.094002	-619.515991	812.520020	23.861250	9.616250	11.217500
178.181000	-444.994995	909.449036	34.063751	5.512500	50.981876
180.438004	-383.567993	958.309998	37.668751	7.892500	53.077499
217.343002	-369.171997	954.528015	12.810000	-0.691250	63.262501
180.621002	-325.618011	992.653015	21.157499	-1.933750	73.946251
135.175995	-159.697998	997.533020	20.527500	7.927500	78.820000
71.248001	-145.790009	947.695984	0.953750	-14.056875	69.575623
97.722000	-139.018997	1001.924988	8.041250	-9.327500	64.504997
46.116001	-92.232002	904.142029	1.067500	4.711875	66.071251
17.385000	-126.514000	935.984009	-10.539375	-12.201875	58.091251
1.220000	-119.864998	995.031982	4.296250	-13.575625	50.063126
-61.366001	-21.167000	1068.963989	-6.982500	-27.951876	47.621876
-119.499001	-77.409004	1062.681030	3.386250	-8.911875	35.520626
-144.875000	-19.032000	990.822998	16.086876	-4.996250	23.655624
-153.171005	-46.421001	1114.958008	2.668750	0.166250	32.379375
-221.735001	-99.612999	1116.056030	9.891875	9.060625	11.930625
-316.223999	-165.065994	1047.431030	33.578125	27.943125	-3.622500
-368.501007	-6.405000	1005.829041	7.223125	25.873751	3.854375
-346.296997	-39.528000	1060.484985	-3.762500	23.856874	-11.296250
-336.170990	-139.873001	1010.038025	4.983125	35.218750	-31.491249
-265.532990	-378.078003	1128.622070	6.746250	36.570625	-42.901249
-386.313019	-404.979004	902.617004	37.603127	65.607498	-48.138126
-351.177002	-219.234009	841.678040	12.140625	55.829376	-40.324375
-354.898010	-338.733002	982.954041	-22.155001	23.060625	-56.161877
-319.579010	-392.169006	863.088989	-5.044375	30.795626	-63.542500
-329.705017	-399.610992	756.643982	-17.093124	16.047501	-56.179375
-229.787003	-422.546997	920.429016	-29.658125	-0.363125	-47.420624
-261.324005	-462.075012	762.866028	-13.085625	4.987500	-43.614376
-166.042007	-551.622986	947.330017	-8.172500	-9.121875	-35.682499
-239.546997	-467.442993	986.187012	41.264999	20.645624	-19.031250
-200.751007	-340.868011	1055.971069	-0.258125	-19.630625	2.961875
-141.886002	-360.632019	856.440002	-8.701875	-12.945625	5.998125
-73.016998	-470.432007	984.845032	-13.365625	-31.141251	20.531876
8.967000	-216.488998	966.239990	2.056250	-12.009375	43.176876
-10.736000	-279.746002	998.570007	-17.478125	-39.204376	35.389374
96.624001	-165.249008	1197.552002	16.187500	-16.660000	48.610626
-33.611000	-74.176003	939.217041	19.004999	3.587500	38.272499
-61.061001	-167.139999	1091.046021	-23.668751	-22.172501	36.334373
-86.315002	-111.934998	1009.794006	-9.025625	-6.304375	46.856251
-106.872002	-191.783997	950.014038	-21.380625	-9.248750	43.369373
-186.111008	-52.154999	939.338989	-8.268750	-6.838125	54.403126
-176.595001	-97.234001	996.984009	-19.433750	-10.500000	43.207500
-217.587006	-64.781998	1057.739990	-6.365625	1.470000	45.233124
-234.727997	59.902000	1057.251953	2.970625	9.148125	43.098125
-316.955994	34.709000	1001.437012	-10.696875	10.618125	24.272499
-408.944000	-37.758999	926.468018	-9.970625	18.720625	11.060000
-453.596008	-17.873001	870.653015	-2.926875	15.898750	-2.047500
-385.459015	-75.945000	954.467041	-9.625000	11.637500	-21.809376
-413.397003	-308.660004	1003.632996	-19.114374	16.121876	-38.635624
-473.726013	-273.463013	887.489014	-5.893125	28.271250	-33.385624
-452.010010	-353.860992	890.966003	-7.997500	22.732500	-35.818127
-391.985992	-230.091995	774.882996	3.246250	25.781876	-42.105000
-423.828003	-457.317017	812.215027	-8.723750	14.056875	-61.320000
-476.714996	-391.437012	773.663025	9.445625	17.176250	-46.646252
-317.505005	-282.917999	806.054016	15.995000	11.138750	-54.516876
-411.140015	-552.233032	826.489014	6.601875	4.116875	-63.551250
-339.587006	-295.545013	812.642029	35.835625	9.633750	-42.551250
-251.197998	-395.218994	959.225037	10.675000	-9.183125	-72.852501
-302.559998	-607.742981	1016.260010	5.538750	-5.976250	-70.371872
-168.665009	-601.338013	1035.414062	22.150625	-24.176250	-98.826874
-171.776001	-678.929993	1031.875977	-13.558125	-15.697500	-63.883751
-77.835999	-433.343994	816.057983	-9.651250	-9.515625	-35.061249
-45.993999	-498.858002	876.936035	-12.293750	-23.095625	-33.197498
32.695999	-491.843018	897.981018	2.471875	-17.513124	-14.599375
55.083000	-429.806000	885.781006	15.798125	-12.201875	6.868750
118.706001	-408.639008	871.812012	6.107500	-17.285625	24.858749
149.938004	-482.937012	1037.244019	9.913750	-21.402500	37.572498
136.518005	-259.920990	932.385010	26.516874	-2.524375	57.312500
135.664001	-356.362000	991.250000	9.480625	-18.173750	53.882500
1.281000	-181.779999	863.333008	14.026250	8.907500	60.173752
6.771000	-276.574005	1115.629028	-1.268750	-6.746250	62.938751
-37.209999	-164.516998	951.661011	8.614375	3.390625	67.042503
-71.980003	-164.944000	959.103027	-7.756875	-10.158750	62.313126
-48.373001	-173.423004	1062.619995	-3.727500	-7.166250	49.262501
-147.070999	-45.567001	893.040039	3.084375	3.132500	56.511875
-170.861008	-93.940002	904.142029	-9.213750	-18.768749	41.842499
-207.705002	-60.389999	1050.724976	-5.639375	-12.770625	45.806252
-299.753998	3.843000	909.997986	5.687500	-5.215000	29.719376
-336.537018	-59.292000	996.069031	-2.695000	-13.457500	14.078750
-328.667999	-12.078000	948.489014	4.812500	3.946250	-10.972500
-349.834991	-154.451996	983.137024	-9.257500	3.858750	-26.433750
-330.315002	-161.466995	976.793030	2.095625	13.321875	-22.141874
-322.628998	-205.447998	930.981995	-0.678125	14.332500	-33.560623
-326.227997	-327.143005	968.741028	-1.089375	13.011250	-41.825001
-299.265991	-250.466003	909.570984	13.251875	21.472500	-41.264999
-292.128998	-366.061005	866.382996	3.605000	14.122500	-57.019375
-251.990997	-526.369019	1002.230042	-4.410000	13.308750	-50.964375
-259.188995	-380.457001	866.382996	19.188749	22.194374	-47.582500
-197.395996	-429.744995	935.739990	17.994375	8.168125	-29.032499
-136.639999	-412.604004	1018.882996	12.293750	-8.281875	-40.035625
-155.184006	-412.970001	1037.000000	8.977500	0.700000	-24.373125
-141.031998	-359.838989	888.587036	-5.241250	1.951250	-7.481250
-84.607002	-329.399994	929.457031	-3.587500	2.043125	-0.358750
-54.534000	-376.003998	726.388000	2.751875	0.218750	-1.557500
-80.703003	-591.700012	1006.377991	2.065000	-34.304375	2.804375
82.654999	-260.897003	982.648987	36.264374	-2.751875	33.180000
39.711002	-289.872009	754.630981	13.343750	-18.270000	35.279999
80.093002	37.271000	846.619019	47.696251	15.246875	65.747498
95.403999	-229.970001	1106.052002	-9.633750	-13.575625	42.713123
100.100998	31.598000	1321.625977	3.626875	-23.699375	26.766251
-140.604996	188.734009	1062.192993	39.668125	42.743752	51.178749
-134.626999	105.224998	1022.908997	-5.880000	16.432501	48.488125
-79.726997	-104.371002	1063.412964	-13.881875	7.035000	18.129999
-90.219002	-261.080017	993.385010	-14.275625	6.422500	12.425000
-81.801003	-174.887009	1046.577026	-9.576875	13.155625	43.929375
-107.542999	-46.786999	1014.918030	-8.666875	17.119375	53.340000
-286.028992	122.122002	940.254028	-8.163750	15.251250	51.231251
-350.384003	71.125999	913.231018	-5.477500	5.827500	34.055000
-375.088989	100.772003	940.132019	-9.843750	-3.298750	24.753750
-370.941010	130.173996	995.093018	-12.372500	3.714375	9.695000
-429.989014	-105.042000	1009.306030	-12.643750	4.672500	-3.661875
-397.963989	-41.236000	1040.050049	-0.796250	11.641875	-4.554375
-459.940002	-149.206009	962.213989	-1.964375	20.794374	-18.773125
-478.484009	-100.589005	876.997009	4.773125	24.990000	-15.391250
-429.257019	-32.146999	889.502014	12.320000	24.946251	-24.535000
-457.683014	-182.451004	894.199036	6.006875	19.617500	-42.761250
-339.282013	-350.079010	993.629028	-3.171875	7.861875	-60.987499
-407.419006	-412.604004	902.190002	-2.371250	9.279375	-60.847500
-316.346008	-346.662994	927.627014	-5.495000	2.944375	-48.868752
-258.029999	-474.824005	1021.750000	-21.183750	-0.896875	-45.272499
-322.933990	-466.589020	947.390991	-7.953750	11.576250	-28.052500
-277.916016	-351.787018	875.898987	-5.166875	6.409375	-17.548124
-214.475998	-449.082001	1018.395020	-19.359375	-1.680000	-12.687500
-205.387009	-360.632019	910.364014	-16.047501	6.387500	4.134375
-181.841003	-363.925995	822.096985	-15.946875	-1.916250	4.878125
-127.673004	-325.069000	825.025024	-12.945625	-8.001875	15.400000
-26.962000	-337.574005	863.333008	-1.124375	-38.854374	33.223751
-26.230000	-174.643005	833.504028	32.379375	-26.652500	50.159374
-19.580999	-145.180008	1008.757019	13.881875	-46.681252	64.723747
20.191000	82.472000	1167.844971	13.046250	-36.846249	76.011253
-45.993999	-12.810000	1140.273071	0.284375	-30.878750	54.333126
-83.509003	29.280001	1135.209961	-1.846250	-15.400000	54.827499
-147.863998	28.548000	988.017029	-5.670000	-10.058125	42.910000
-209.352005	-9.211000	1006.561035	-12.368125	-16.856874	36.124374
-235.033005	0.427000	1020.530029	-12.184375	-11.720625	32.935001
-320.920990	-148.962006	1118.862061	-17.368750	-11.401250	10.718750
-354.044006	-120.292000	1085.800049	-3.395000	12.617500	15.933750
-434.563995	-98.027000	989.176025	3.416875	22.299376	9.751875
-475.617004	-133.468002	1015.406006	-1.780625	26.901875	-0.420000
-462.136017	-112.544998	959.225037	-7.682500	27.330626	-6.046250
-427.549011	-145.790009	986.858032	-9.209375	27.706875	-23.270624
-436.210999	-213.072998	963.494995	-9.664375	32.773125	-43.220627
-474.885010	-260.347992	839.238037	-4.554375	34.501251	-47.621876
-416.630005	-271.511017	843.447021	-5.827500	23.594376	-58.834999
-393.998993	-355.934998	848.692993	-11.768750	18.094999	-67.016251
-325.313019	-414.128998	819.901001	-7.096250	7.910000	-65.865623
-277.428009	-420.106995	827.221008	-1.185625	3.609375	-65.152496
-293.776001	-438.101990	816.484985	10.154375	2.677500	-58.638126
-250.832001	-362.828003	846.192017	14.748125	-1.045625	-45.403751
-205.936005	-383.507019	894.931030	13.851250	-5.678750	-47.626251
-179.584000	-440.847015	870.775024	17.473749	-9.839375	-40.302502
-110.959000	-380.274017	920.673035	15.347500	-15.286250	-25.226250
-34.770000	-390.338989	933.299988	15.417500	-14.336875	-23.428125
-21.350000	-476.227020	859.184998	6.002500	-18.322500	-11.493125
25.864000	-123.098000	892.125000	34.553749	-0.061250	34.768124
46.299000	-385.276001	964.898010	-8.500625	-40.455624	20.479376
121.877998	-268.338989	1197.552002	3.543750	-21.424376	48.903751
43.066002	-130.540009	917.928040	12.040000	-7.560000	44.848125
55.021999	-185.378998	1156.987061	-4.786250	-19.022499	45.272499
30.073000	-93.330002	1032.729980	5.831875	4.038125	52.325001
-83.387001	-109.678001	931.775024	-2.905000	-1.015000	51.380001
-62.646999	-58.255001	1033.889038	-9.992500	-8.421875	54.945625
-141.641998	18.666000	957.212036	-1.032500	4.795000	51.380001
-271.205994	41.785000	860.466003	-4.991875	0.135625	41.234375
-271.389008	-46.970001	1090.070068	-4.733750	-5.372500	13.895000
-345.931000	-144.936005	1050.237061	-2.200625	4.300625	5.258750
-365.268005	-34.160000	1077.869995	2.699375	17.434376	16.716875
-435.722992	-32.085999	975.695007	22.728125	36.955624	0.533750
-422.851990	-99.307999	945.622009	23.318750	32.278751	-15.710625
-458.842010	-201.727005	1000.217041	-0.135625	28.332500	-22.010626
-455.121002	-204.716003	915.061035	15.001875	44.953125	-32.405624
-423.218018	-417.666992	895.236023	-4.738125	22.916250	-51.244373
-413.214020	-521.244995	938.668030	-15.754375	17.219999	-49.105000
-324.641998	-480.070007	782.203003	-8.513750	0.892500	-71.806877
-298.656006	-519.658997	977.403015	-14.188125	-16.922501	-58.463123
-211.731003	-274.500000	959.895996	-2.257500	-5.538750	-49.231876
-213.134003	-473.726013	902.007019	-2.655625	1.159375	-59.500000
-186.904007	-533.994019	985.333008	0.231875	-4.602500	-43.268749
-152.805008	-367.220001	943.487000	6.011250	6.930000	-16.629375
-174.277008	-394.852997	836.309998	2.765000	2.191875	-18.856251
-152.438995	-426.390015	899.627991	-2.388750	-10.780000	-0.905625
-79.056000	-301.584015	795.867004	1.041250	-9.673125	7.087500
-49.043999	-429.928009	934.642029	1.251250	-27.615000	8.806875
31.964001	-225.761002	954.650024	2.493750	-27.111876	40.350624
80.276001	-198.372009	1092.754028	4.808125	-19.153749	43.408749
54.595001	-199.958008	1019.371033	6.181875	-12.053125	40.871250
38.674000	-221.490997	1097.390015	-5.101250	-15.351875	50.859375
-7.076000	-87.901001	1026.691040	3.618125	0.555625	56.468124
-90.584999	-119.194000	949.648010	-2.953125	-4.388125	48.606251
-88.145004	-102.480003	1089.582031	-7.770000	-8.662500	54.945625
-179.339996	-12.688000	976.244019	-1.461250	1.732500	47.818748
-301.157013	-24.948999	923.723022	-13.558125	-5.915000	38.342499
-363.864990	-16.958000	960.200989	-13.326250	6.938750	16.419374
-440.786011	-114.192001	946.476013	-6.610625	1.960000	5.411875
-413.458008	-2.257000	1065.547974	0.188125	13.041875	5.083750
-455.243011	-55.449001	941.229980	8.666875	25.843124	-22.054375
-488.122009	-293.166016	981.916992	-3.705625	19.897499	-32.051250
-398.085999	-135.664001	969.106995	10.106250	33.630627	-28.153126
-414.678009	-367.342010	890.721985	0.210000	33.503750	-53.926250
-454.266998	-485.987000	881.389038	-4.519375	24.863125	-50.526875
-387.411011	-346.723999	839.054993	4.882500	26.888750	-50.343124
-399.123016	-462.684998	797.819031	-2.664375	16.253124	-63.004375
-328.545990	-440.420013	949.708984	2.887500	13.365625	-43.443748
-291.885010	-451.949005	868.518005	-3.976875	12.486250	-43.938126
-270.291016	-546.682007	968.619019	2.896250	7.682500	-37.506874
-240.706009	-413.519012	916.768982	8.500625	11.563125	-14.945000
-216.244995	-373.990997	858.697021	-2.642500	1.706250	-15.946875
-167.628006	-530.455994	845.520996	-8.150625	-8.120000	-11.742500
-90.646004	-291.519012	914.817017	2.174375	-4.816875	18.445000
-71.675003	-249.917007	770.186035	-5.372500	-10.290000	11.720625
-58.438000	-424.559998	949.830994	0.695625	-25.073126	18.948126
-30.500000	-378.932007	932.263000	15.365000	-16.235624	32.440624
41.723999	-238.022003	1076.711060	4.068750	-26.166876	45.329376
19.459000	-184.891006	932.690002	-3.123750	-25.620001	36.019375
-24.888000	-329.826996	1116.300049	-9.926875	-36.102501	33.853748
20.618000	-25.437000	1067.134033	-5.626250	-16.344999	48.951874
-110.715004	-236.497009	947.147034	-20.251875	-15.102500	24.661875
-168.787003	-315.735992	957.395020	-14.336875	-17.110624	32.143124
-161.345001	-48.617001	998.814026	-5.945625	-11.274375	48.387501
-307.867004	-61.061001	899.932983	-6.781250	-9.611875	28.888124
-305.244019	-61.487999	982.161011	-8.540000	-10.727500	24.692499
-376.492004	-211.121002	962.397034	1.824375	5.429375	-6.772500
-353.251007	-208.559006	1043.526978	3.346875	14.704375	2.056250
-414.678009	-257.175995	968.619019	12.236875	33.407501	-5.123125
-533.932983	-258.029999	817.949036	24.097500	37.384377	1.106875
-451.705017	-88.938004	928.541992	16.288124	29.951250	-6.151250
-503.127991	-333.975006	882.548035	19.586876	31.657499	-40.219376
-444.324005	-322.567993	905.057007	15.981875	18.423124	-47.648125
-355.630005	-411.933014	979.294006	1.032500	11.908750	-62.597500
-337.390991	-529.174988	931.226013	9.065000	13.650000	-69.046249
-266.386993	-524.783020	952.515015	-3.587500	8.850625	-53.567501
-280.234009	-518.682983	835.273010	-3.408125	20.378750	-32.580624
-255.895004	-473.360016	803.126038	-3.692500	8.360625	-23.051874
-233.934998	-492.391998	863.393982	-2.069375	-3.333750	-17.771250
-193.675003	-345.442993	908.168030	6.650000	-5.989375	-1.373750
-139.384995	-259.188995	824.658997	-0.223125	-12.197500	-5.013750
-84.485001	-485.987000	836.065979	-19.468750	-40.831875	-11.348750
-5.734000	-412.847992	937.875000	-8.728125	-26.705000	17.976875
4.453000	-443.714020	881.023010	-3.263750	-21.043751	27.790001
54.961002	-304.634003	998.752991	11.436250	-19.105625	44.817501
19.215000	-172.569000	1076.833008	15.185625	-16.362499	45.814999
-37.514999	-48.678001	1116.971069	5.363750	-10.552500	41.111874
-21.350000	-238.022003	1104.039062	-10.220000	-11.265625	26.652500
-49.348999	-187.209000	1020.835022	-12.153750	-3.863125	35.752499
-117.181000	-195.626999	944.402039	-15.023750	-6.514375	26.088125
-149.084000	-210.816010	980.330994	-15.500625	-12.158125	25.685625
-175.009003	-137.371994	953.369019	-14.870625	-7.813750	26.127501
-300.973999	-219.477997	808.311035	-11.681250	-13.050625	19.744375
-252.906006	-149.755005	985.699036	-8.155000	-20.177500	33.188751
-304.024017	-46.665001	977.403015	10.482500	2.480625	21.328125
-362.705994	-163.906998	1032.791016	5.875625	4.663750	1.225000
-415.837006	-80.703003	929.091003	26.656876	23.940001	-12.591250
-436.942993	-302.071991	967.765015	11.353125	15.518125	-38.031876
-369.964996	-278.587006	981.978027	24.215626	28.056875	-35.153126
-350.811005	-428.158997	1007.415039	18.703125	27.273750	-61.057499
-355.386017	-636.778992	1035.047974	10.395000	27.846874	-50.093750
-277.306000	-248.148010	875.716003	25.068750	35.555626	-36.063126
-283.467010	-496.174011	952.332031	-7.953750	3.333750	-69.676247
-317.566010	-551.989014	959.103027	-7.958125	8.356250	-47.293751
-246.074005	-486.779999	861.320007	-7.748125	-3.863125	-47.411877
-187.514008	-497.210999	916.647034	10.408125	1.505000	-25.641874
-122.915001	-345.748016	795.135010	9.716875	-5.416250	-16.611876
-32.939999	-499.589996	921.221985	-13.593125	-33.013748	-20.658751
53.375000	-437.614014	1029.680054	-1.308125	-28.227501	9.393125
67.832001	-147.009995	910.913025	8.649375	-17.998751	21.813749
106.811005	-292.617004	954.283997	-18.414375	-37.388748	1.640625
105.164001	-443.042999	977.890991	-13.632500	-34.181873	16.703751
103.578003	-155.001007	952.027039	1.408750	-16.480625	48.374374
98.514999	-270.657013	1020.835022	-13.943125	-28.297501	40.783749
71.065002	-96.624001	1035.657959	17.657499	-3.386250	47.372501
-38.917999	-66.612000	1033.949951	1.120000	0.914375	46.326874
-125.965004	-94.733002	887.489014	-1.570625	2.458750	33.862499
-112.239998	-182.695007	995.276001	-4.563125	-8.023750	28.638750
-147.863998	-138.470001	1012.843994	-0.870625	-0.354375	28.380625
-186.598999	-110.531998	1012.600037	2.065000	4.046875	23.073750
-233.020004	-129.807999	1056.031982	-0.870625	9.848125	21.056875
-290.787018	-71.003998	1014.979004	10.416875	26.145000	15.443750
-378.139008	-157.197006	947.879028	2.205000	21.183750	-5.740000
-381.494019	-166.895996	934.580994	7.503125	38.246250	-15.745625
-386.800995	-341.843994	935.374023	-8.610000	28.459375	-37.327499
-386.618011	-424.255005	974.596985	-2.174375	32.134377	-35.621250
-373.442017	-349.774017	859.551025	-1.036875	32.221874	-44.183125
-358.070007	-526.856995	943.975037	-18.720625	20.059376	-51.533127
-319.091003	-489.037018	938.911987	-6.370000	32.217499	-46.554375
-331.535004	-479.033020	721.385986	1.876875	29.159374	-50.872501
-311.770996	-578.707031	777.627991	-9.358125	5.687500	-43.474377
-256.993011	-525.270996	817.338989	3.071250	12.810000	-26.958750
-256.809998	-538.630005	642.574036	7.980000	3.692500	-23.047501
-121.572998	-411.933014	826.244995	27.584375	-4.401250	17.377501
-89.669998	-484.278992	843.752014	24.880625	-24.841249	13.549375
40.320999	-397.292999	1079.029053	17.521875	-29.868126	38.154373
36.844002	-200.690002	930.432983	21.280001	-18.843124	37.817501
-26.840000	-352.031006	1002.962036	18.628750	-29.518126	28.743750
68.685997	-124.988998	1072.197021	17.850000	-24.198126	64.583748
104.981003	-5.856000	1112.091064	8.640625	-24.071251	60.318127
-4.026000	-41.663002	1092.388062	4.580625	-16.489374	44.673126
-30.073000	-13.542000	1138.260010	-5.118750	-8.203125	41.864376
-125.598999	-124.988998	1021.079041	-20.702499	-2.681875	23.887501
-145.302002	-121.207001	1042.062988	-20.969376	1.124375	31.946251
-139.751007	-111.813004	904.996033	-17.504375	12.967500	29.163750
-261.263000	-200.751007	759.755005	-14.109375	2.371250	23.183125
-293.044006	-142.007996	899.994019	-3.504375	-7.713125	35.306252
-318.725006	-80.520004	928.786011	4.296250	-5.534375	32.711876
-439.627014	-169.641006	929.030029	5.123125	-9.821875	24.836876
-408.089996	-92.475998	1072.074951	3.574375	-6.387500	29.588125
-429.623016	-170.678009	1019.981018	5.801250	7.717500	6.846875
-528.077026	-293.166016	939.400024	-2.384375	4.138750	2.275000
-494.832001	-226.249008	1028.643066	15.063125	38.202499	-9.572500
-514.718018	-64.843002	836.737000	32.143124	43.220627	-22.203125
-406.992004	-156.404007	1055.787964	-7.958125	21.761250	-45.066875
-410.529999	-361.119995	1005.645996	-3.329375	36.701874	-61.079376
-381.860016	-345.382019	809.286987	5.438125	42.131248	-55.636875
-333.182007	-351.054993	805.444031	-4.847500	32.208752	-57.465626
-322.324005	-536.556030	813.923035	5.696250	24.408125	-64.325623
-298.838989	-437.919006	761.585022	25.278749	11.449375	-41.951874
-230.763000	-326.289001	913.536011	8.382500	-3.972500	-34.002499
-196.175995	-457.011993	912.255005	23.961876	0.078750	-13.685000
-153.475998	-355.569000	908.168030	8.343125	-7.319375	3.758125
-102.541000	-455.243011	916.403015	3.250625	-14.385000	12.788125
-96.563004	-311.404999	955.442993	18.160625	-11.650625	40.459999
-34.038002	-99.430000	942.267029	9.861250	-16.616249	47.394375
-51.972000	-356.300995	1003.937988	-16.104376	-31.128124	32.501877
-53.680000	-115.350998	1044.869019	2.651250	-14.393750	67.090622
-109.007004	34.526001	939.705017	-2.498125	-9.629375	65.016876
-112.849998	-156.647995	1066.218994	-7.848750	-24.171875	37.861252
-132.979996	65.453003	1035.047974	7.665000	-0.818125	56.581875
-257.664001	52.033001	1029.924072	-13.593125	-12.958750	26.879999
-274.622009	148.046997	995.276001	-7.323750	-6.829375	18.611250
-356.727997	-14.945000	893.588989	-8.701875	-11.633125	-3.784375
-363.743011	-134.261002	986.492004	-2.865625	-9.266250	-0.236250
-335.865997	29.097000	944.341003	14.288750	11.624375	18.707500
-410.468994	-70.943001	865.590027	8.811250	2.961875	-0.962500
-432.673004	-147.986008	1030.229004	3.298750	5.114375	-0.975625
-439.382996	-79.117004	933.178040	25.217501	22.924999	-6.776875
-529.968018	-227.102997	876.387024	10.854375	10.609375	-24.753750
-353.067993	-134.261002	1046.454956	-17.325001	-9.520000	-44.611874
-433.466003	-461.037994	1084.275024	-14.455000	-6.930000	-61.433750
-254.553009	-248.514008	1121.850952	-4.103750	2.323125	-46.453751
-228.018005	-489.647003	1203.224976	-39.926250	8.614375	-56.560001
-281.393005	-552.416016	1055.239014	-26.871250	30.043125	-33.223751
-261.140991	-200.080002	1009.306030	-21.485624	37.121876	-8.255625
-280.050995	-142.984009	875.533020	-32.221874	33.551876	-41.006874
-253.882004	-57.278999	824.598022	-37.865623	29.898750	-47.210625
-229.542999	-170.556000	562.908020	-32.471249	30.664375	-65.191872
-202.641998	-495.929993	475.617004	-23.524376	1.141875	-42.568748
-98.332001	-582.367004	687.164978	-3.880625	-18.309376	-29.653749
-151.585007	-656.543030	582.854980	33.753124	-13.794375	-15.198750
-104.798004	-602.984985	690.031982	37.371250	-43.106876	5.888750
4.880000	-567.361023	1104.343994	36.443748	-56.713123	19.569374
-50.691002	-606.156982	1088.972046	33.123123	-38.521873	28.503124
-93.635002	-650.626038	1044.869019	2.073750	-43.526875	53.230625
-69.600998	-586.942017	1164.855957	0.774375	-39.204376	72.603127
-183.427002	-444.507019	981.429016	3.635625	-26.048750	80.989998
-252.357010	-279.257996	1156.133057	2.065000	-14.258125	89.486252
-369.233002	-33.549999	1075.674072	3.150000	4.685625	86.883125
-422.425018	-120.963005	1274.534058	-14.021875	5.796875	60.598125
-441.029999	104.126999	1148.874023	-9.905000	31.075624	49.879375
-496.479004	48.739002	1058.105957	-40.053123	37.178749	7.420000
-443.287018	-136.518005	1028.338013	-44.064999	51.590000	-14.056875
-468.296997	-76.737999	747.127991	-20.536249	67.602501	-27.081249
-450.424011	-17.446001	764.085999	-16.524376	59.758125	-39.466873
-344.162018	-94.550003	780.677979	-13.772500	56.441875	-62.098751
-274.072998	-299.815002	601.155029	1.649375	59.504375	-79.003754
-209.169006	-337.269012	673.013000	12.123125	33.985001	-77.774376
-224.846008	-523.989990	721.020020	23.454374	28.555626	-84.035004
-174.399002	-306.830017	581.940002	41.374374	18.663750	-60.974377
-26.413000	-530.273010	887.184021	1.115625	-17.806250	-84.332497
-104.554001	-858.392029	787.692993	9.646875	-16.423750	-75.989372
-57.096001	-782.507996	757.010010	16.161249	-26.726875	-30.034374
-52.887001	-840.275024	803.247986	15.347500	-40.162498	-3.101875
-78.873001	-778.481995	815.082031	30.511250	-39.856251	33.328751
-80.153999	-587.734985	869.921021	28.691250	-45.298752	63.306252
-177.632004	-619.577026	995.458984	24.701250	-46.466873	79.620628
-209.718002	-414.251007	1057.130005	27.549376	-40.293751	95.020622
-307.806000	-263.764008	1158.695068	16.205000	-36.645000	87.981247
-389.790009	-263.519989	1183.461060	0.323750	-26.088125	75.184372
-454.938019	-85.339005	1151.802002	-13.413750	-16.979376	64.693123
-470.798004	-31.659000	1251.536987	-30.003750	-4.239375	41.063751
-445.056000	6.161000	1139.602051	-32.830002	23.568125	13.825000
-461.648010	-61.000000	975.572998	-29.610001	42.354374	-13.855625
-396.317017	6.161000	1047.979980	4.895625	70.056877	-28.174999
-337.878998	-139.324005	706.807007	-1.400000	53.904373	-75.665627
-248.148010	-213.317001	763.963989	12.254375	56.078751	-75.411873
-231.190002	-212.035995	594.994019	20.930000	46.659374	-79.782501
-175.130997	-393.023010	719.921997	2.865625	19.941250	-77.048126
-78.140999	-538.447021	726.937012	9.436875	10.281250	-70.144379
-45.383999	-668.742981	681.858032	6.387500	-9.559375	-60.707500
79.178001	-950.989990	900.359985	-17.618126	-43.885624	-39.882500
15.982000	-891.454041	920.916992	9.690625	-35.809376	14.599375
-12.017000	-638.609009	884.072998	18.462500	-44.887501	49.463749
-33.733002	-610.366028	1049.443970	9.765000	-52.276875	73.639999
-151.341003	-409.066010	1075.979004	6.453125	-48.374374	113.001877
-291.335999	-169.153000	1152.046021	2.769375	-34.151249	117.459999
-435.052002	-248.514008	1189.805054	-10.696875	-26.976250	87.723122
-509.654999	-110.043999	1217.560059	-15.671250	-3.246250	87.819374
-525.332031	20.069000	1144.299072	-27.658751	26.866875	69.199371
-576.450012	-59.779999	971.608032	-33.145000	42.551250	29.001875
-593.408020	-41.541000	808.067017	-33.341873	50.881248	8.535625
-617.380981	-97.661003	659.837036	-29.150625	48.033127	-17.268126
-601.460022	-142.130005	647.637024	-13.566875	40.840626	-38.399376
-461.282013	-211.182007	741.942993	8.470000	36.544376	-58.948750
-364.109009	-379.907990	889.319031	3.736250	27.545000	-104.160004
-327.752991	-412.115997	898.103027	10.425625	35.525002	-97.334999
-269.498016	-457.988007	869.250000	7.052500	34.177502	-100.257500
-188.063004	-663.436035	982.648987	-16.485001	34.820625	-91.345627
-185.744995	-747.921021	820.023010	-16.078125	52.075626	-73.272499
-174.337997	-868.578979	686.189026	-17.828125	49.756874	-51.139374
-117.547005	-818.315002	672.952026	-14.376250	47.897499	-9.524375
-146.522003	-701.317017	562.176025	0.813750	38.941875	3.408125
-142.190994	-765.794006	678.015015	1.067500	17.915625	19.691875
-173.727997	-606.645020	605.059021	-0.765625	-9.839375	49.984375
-168.055008	-624.030029	702.171021	-5.713750	-31.456249	70.945000
-189.527008	-421.265991	672.463989	5.661250	-37.918125	81.816872
-277.976990	-408.944000	662.033020	-0.363125	-59.495625	73.810623
-206.973007	-356.789001	842.531982	1.680000	-70.288750	79.038750
-280.173004	-276.269012	769.880981	5.363750	-68.586876	68.897499
-233.751999	-246.928009	953.552002	3.338125	-80.285622	68.687500
-219.477997	-313.783997	1113.311035	9.480625	-60.213123	64.894379
-471.286011	-364.657990	937.570007	21.791876	-49.739376	70.389374
-512.827026	-68.625000	1138.015991	8.071875	-50.964375	94.828125
-792.695007	-55.021999	1165.222046	12.678750	-18.405624	53.821251
-754.387024	-57.218002	1320.284058	-17.338125	-2.603125	25.541250
-657.885010	-163.419006	1269.531982	-27.991249	33.236874	-10.276875
-636.413025	-58.072002	1002.230042	-35.293125	55.641251	-18.147499
-539.301025	66.489998	821.121033	-26.595625	71.426247	-35.363125
-522.038025	32.208000	562.968994	-11.974375	66.823753	-68.180000
-429.806000	-44.652000	459.147003	-10.053750	43.841873	-80.447502
-295.179016	-104.614998	466.406006	58.673126	15.028125	-104.243126
-147.436996	-536.799988	1190.232056	52.990002	-15.408750	-100.686249
11.041000	-751.031982	1143.994019	3.132500	4.134375	-66.727501
-64.538002	-1006.804993	1132.098999	-17.045000	9.380000	-40.468750
-95.770004	-684.908020	919.330994	11.051250	26.950001	12.595625
-150.365005	-574.986023	869.738037	-12.516875	9.480625	26.193125
-200.445999	-563.273987	864.674988	-17.193750	1.382500	37.629375
-242.475006	-411.750000	722.728027	-14.813750	-5.446875	48.978127
-274.500000	-386.923004	810.018982	-17.701250	-18.121250	48.877499
-257.907990	-366.792999	791.414001	-2.940000	-33.088123	55.129375
-347.761017	-287.127014	771.345032	29.885626	-37.585625	68.691872
-302.194000	-273.279999	1075.734985	26.026875	-44.209373	78.386871
-354.714996	-174.520996	1070.000977	64.535622	-16.537500	80.530624
-449.326019	-80.153999	1043.282959	80.556877	-11.480000	76.019997
-376.369995	-99.795998	1345.598999	114.598747	32.799374	81.173752
-485.682007	181.962997	1074.393066	-19.565001	17.823750	75.201874
-502.761993	119.559998	965.996033	-51.883125	14.573125	38.701248
-500.139008	242.535995	794.098022	-93.681877	-6.024375	38.298752
-416.813019	107.604004	822.828979	-143.342499	-22.741249	-1.115625
-350.933014	37.881001	838.505981	-143.342499	-31.753750	-19.171249
-315.431000	-139.141006	783.911011	-143.342499	-28.258125	-50.491875
-281.515015	-293.776001	750.056030	-112.949371	-15.688750	-70.914375
-224.113998	-373.686005	707.416992	-102.064377	-11.410000	-82.941254
-108.823997	-713.578003	769.332031	-94.675003	-18.554375	-88.348747
-99.247002	-866.687988	785.436035	-48.571251	0.345625	-72.773750
-83.692001	-825.635010	744.382996	14.433125	28.529375	-44.506874
-64.843002	-797.514038	762.804993	55.247501	43.728127	-30.598749
-25.315001	-877.302002	907.130981	121.655624	73.285622	-28.691250
-171.471008	-659.776001	608.658020	142.786880	89.665627	-14.144375
-187.757996	-462.989990	920.489990	116.020622	51.191875	10.141250
-160.063995	-486.597015	957.760986	134.036880	67.326874	6.654375
-308.233002	-301.950012	650.138000	117.074997	59.583126	8.771875
-294.019989	-357.338013	930.311035	41.378750	19.188749	15.658125
-309.757996	-262.178009	855.403015	52.368752	12.630625	18.895624
-325.618011	-224.663010	937.752991	31.850000	4.108125	26.285000
-336.903015	-144.020996	952.210022	20.177500	0.350000	31.071251
-342.270996	-81.129997	924.699036	14.940625	-2.270625	23.170000
-352.763000	-174.216003	955.015991	-2.690625	-10.049375	14.927500
-364.963013	-181.841003	897.127014	4.484375	-9.323125	16.358126
-335.256012	-71.736000	866.687988	6.011250	-18.261250	23.288124
-304.511993	-89.181999	867.298035	4.773125	-20.982500	24.801874
-315.675018	-107.725998	892.918030	8.098125	-29.583750	25.401251
-307.378998	-17.568001	1050.420044	13.426875	-19.569374	11.143125
-291.458008	-92.049004	1138.504028	-5.814375	-19.490625	4.799375
-298.229004	-67.039001	1094.889038	-7.393750	-6.431250	7.643125
-286.578003	-60.207001	1069.513062	-4.803750	-1.093750	4.930625
-279.319000	-50.264000	1010.098999	-0.091875	6.243125	0.765625
-268.888000	-55.693001	970.692993	0.096250	7.651875	-2.441250
-263.703003	-37.393002	948.122986	-0.673750	5.320000	-4.326875
-265.838013	-77.165001	941.291016	-1.596875	5.779375	-6.177500
-275.781006	-58.376999	881.755005	1.601250	2.296875	-6.313125
-266.813995	-126.696999	969.656006	2.843750	-0.231875	-6.300000
-286.578003	-126.391998	913.475037	2.200625	-4.440625	-1.977500
-275.110016	-101.077003	1070.427979	-5.040000	-10.333750	1.251250
-277.428009	-206.729004	1267.213989	-8.260000	-6.243125	-6.514375
-302.377014	-234.544998	1359.690063	-12.311250	8.058750	-4.392500
-269.619995	-118.523003	1372.134033	-31.513124	32.405624	3.027500
-290.360016	-74.176003	1109.468018	-35.599377	53.641876	-1.483125
-269.803009	-81.801003	900.786987	-40.696251	55.544998	-1.736875
-269.376007	-118.523003	726.754028	-35.660625	56.866249	-3.762500
-324.580994	-139.507004	408.639008	-24.329374	49.735001	-2.861250
-297.558014	-116.022003	423.828003	7.424375	-21.910000	4.497500
-267.790009	-93.025002	551.622986	34.851250	-42.940624	3.294375
-267.179993	-147.315002	893.161987	42.735001	-56.345627	7.153125
-302.804016	-110.715004	1017.968018	49.166248	-47.105625	13.978125
-331.169006	-63.195999	1141.920044	47.306873	-46.204376	12.372500
-294.203003	-76.982002	1386.286011	31.254999	-36.168125	4.996250
-342.820007	-153.354004	1409.405029	20.160000	-6.475000	7.555625
-323.605011	-215.208008	1409.222046	-1.338750	3.329375	0.411250
-322.080017	-181.597000	1305.094971	-20.181875	20.387501	3.517500
-249.856003	-55.510002	1140.760986	-42.651875	50.168125	-0.323750
-274.561005	-83.509003	948.001038	-49.791874	52.635624	-2.358125
-272.791992	-119.926003	839.848022	-50.601250	55.593124	1.487500
-365.877991	-112.423004	569.312988	-28.853125	50.386875	0.971250
-388.265015	-59.353001	495.502991	-23.830626	23.966249	2.703750
-372.832001	-134.626999	504.287018	-9.590000	4.908750	-4.633125
-400.098999	-201.483002	510.509003	12.845000	-16.423750	-7.691250
-395.584991	-166.225006	719.617004	25.138750	-38.482498	-0.013125
-365.634003	-152.988007	837.713013	42.953751	-44.996876	-1.986250
-387.289001	-123.952003	1318.088013	34.208126	-54.315624	14.468125
-439.016998	-116.937004	996.679016	0.538125	-8.763125	-11.611250
-396.134003	-451.460999	1055.056030	-12.145000	-10.163125	-27.593124
-363.559998	-478.300995	1120.386963	-20.011250	-11.305000	-6.833750
-309.575012	-384.787994	1251.659058	-33.499374	-4.589375	3.154375
-300.181000	-205.020996	1237.812012	-38.049374	11.843125	11.541250
-314.272003	-171.897995	1017.846008	-56.070000	26.954374	10.294375
-365.390015	-218.501999	799.221985	-60.073124	25.812500	11.007500
-307.562012	-206.057999	720.166016	-43.548752	28.984375	17.609375
-359.960999	-169.031006	489.464020	-25.934999	24.736250	21.791876
-287.859009	16.409000	573.827026	13.663125	-26.250000	14.078750
-283.710999	-137.250000	702.658997	24.705626	-45.674999	-11.099375
-272.425995	-292.190002	881.267029	25.243750	-57.688751	-13.750625
-253.699005	-335.072998	1068.475952	38.080002	-49.166248	-9.231250
-284.748016	-327.752991	1205.604004	36.211876	-38.653126	-1.513750
-233.447006	-393.571991	1415.993042	13.330625	-28.708750	3.775625
-242.719009	-378.566010	1462.414062	-0.844375	-8.798125	9.397500
-269.558990	-228.262009	1345.477051	-24.946251	11.033750	9.852500
-288.529999	-245.585999	1154.058960	-48.811874	24.014376	5.674375
-259.615997	-189.770996	866.505005	-56.026249	32.830002	4.620000
-238.693008	-304.634003	576.937988	-47.075001	11.296250	9.156875
-282.490997	-179.339996	355.996002	-10.403750	4.773125	15.745625
-275.049011	-138.104004	399.671997	19.000626	-23.668751	6.116250
-189.893005	-242.231003	745.603027	39.935001	-44.904999	0.446250
-176.656006	-252.966995	1036.511963	49.638748	-48.400623	-1.430625
-175.680008	-333.670013	1254.770020	31.828125	-39.681252	-4.414375
-188.550995	-429.440002	1373.598022	17.871876	-21.940624	-3.421250
-217.281998	-422.669006	1345.110962	6.321875	0.459375	-0.971250
-239.669006	-351.665009	1345.416016	-11.738125	13.116250	5.993750
-215.451996	-257.481018	1012.539001	-38.014374	40.993752	-2.979375
-216.184006	-223.443008	867.481018	-42.730625	42.975624	1.343125
-251.807999	-305.122009	627.994995	-44.288124	39.348751	-0.021875
-266.447998	-350.384003	480.497009	-46.974377	15.658125	14.651875
-285.480011	-229.482010	404.063995	-7.153125	5.193125	13.260625
-300.485992	-187.880005	367.524994	36.474377	-15.741250	-7.153125
-260.287018	-243.817001	699.731018	49.332500	-44.143749	-14.621250
-217.404007	-166.529999	959.530029	73.184998	-44.345001	-11.213125
-197.701004	-182.878006	1147.287964	63.070000	-44.939999	-18.466875
-181.658005	-158.783005	1534.455078	59.473751	-27.776875	-7.498750
-285.723999	-384.605011	1327.421021	-2.778125	30.371250	-25.020624
-282.979004	-504.531006	1248.791992	-24.360001	39.567501	-19.171249
-261.628998	-331.596008	1133.685059	-33.932499	44.476250	-12.814375
-243.085007	-337.024994	1143.445068	-50.294998	40.783749	-14.586250
-216.977005	-248.270004	1022.177002	-56.183750	52.465000	-4.803750
-239.913010	-206.546005	708.453979	-62.864376	55.842499	-4.515000
-340.684998	-293.837006	447.923004	-60.029373	42.118126	-6.606250
-323.178009	-276.451996	398.208008	-36.911877	20.864374	8.019375
-344.467010	-174.520996	219.904999	-8.758750	-6.199375	14.813750
-204.654999	-191.479004	692.471985	58.979374	-45.425625	-14.188125
-231.617004	-365.268005	925.492004	68.534378	-56.713123	-20.365625
-195.505005	-409.614990	1240.678955	55.706875	-49.468124	0.188125
-231.983002	-423.584015	1307.535034	50.408749	-35.953751	0.826875
-270.046997	-370.941010	1418.677002	35.161877	-25.869375	4.431875
-299.998016	-276.024994	1354.932007	5.302500	-13.650000	0.463750
-253.882004	-321.713989	1415.687988	-18.243750	-1.658125	-8.006250
-210.449997	-181.169998	1293.200073	-33.849377	23.502501	-7.634375
-244.732010	-255.651001	1095.010986	-44.454376	41.549374	-13.413750
-267.729004	-116.327003	624.578979	-43.369373	53.943748	-0.647500
-331.718018	-124.257004	358.313995	-46.068748	33.096874	-1.583750
-268.765991	-255.529007	401.746002	-18.375000	10.220000	-10.981250
-289.018005	-333.670013	256.261017	32.466873	-15.356250	-29.264376
-170.311996	-380.761993	628.056030	35.004375	-56.288750	-14.043750
-128.100006	-343.125000	996.374023	66.136871	-52.788750	-1.448125
-174.337997	-241.742996	1050.603027	71.513748	-46.637501	1.701875
-116.144005	-343.490997	1380.857056	32.488750	-50.566250	-0.070000
-183.915009	-289.079010	1301.008057	33.923752	-15.395625	5.985000
-228.262009	-230.824005	1181.265015	15.286250	-4.834375	5.289375
-223.016006	-192.820999	1010.648010	-3.666250	6.755000	3.933125
-214.048996	-150.059998	985.942993	-5.985000	5.162500	0.026250
-193.675003	-156.098999	948.733032	-5.433750	6.912500	-4.860625
-204.899002	-213.317001	919.148010	-2.043125	5.967500	-5.551875
-188.977997	-207.216995	916.708008	1.662500	4.348750	-4.571875
-189.587997	-219.783005	958.798035	1.312500	2.205000	-2.673125
-173.117996	-219.722000	996.312988	3.495625	2.222500	-0.809375
-189.344009	-203.007996	982.710022	4.624375	3.460625	-1.535625
-191.906006	-216.184006	1004.975037	3.788750	5.683125	0.056875
-194.406998	-210.145004	983.747009	2.835000	-0.861875	-1.001875
-199.897003	-193.613998	988.382996	0.105000	0.568750	-2.139375
-193.186996	-204.899002	962.640991	-0.625625	0.984375	-3.390625
-192.638000	-216.244995	996.130005	-2.498125	0.861875	-2.450000
-187.819000	-203.191010	984.783997	1.535625	-0.437500	0.096250
-194.285004	-206.180008	965.507996	1.277500	1.045625	-0.796250
-183.061005	-215.695999	1009.244995	2.030000	-0.131250	0.962500
-206.240997	-207.949005	994.544006	1.430625	1.601250	1.211875
-214.415009	-175.313995	969.717041	1.474375	2.476250	0.931875
-214.110001	-187.453003	969.168030	0.048125	1.955625	-2.493750
-207.216995	-212.707001	980.757996	0.586250	2.660000	-3.976875
-211.914001	-195.199997	985.699036	0.336875	2.673125	-2.690625
-220.759003	-186.354996	933.666016	1.478750	3.797500	-3.539375
-209.839996	-203.496002	956.296997	1.680000	-0.109375	-4.108125
-196.908005	-193.492004	980.575012	4.663750	1.172500	-3.893750
-214.658997	-169.518997	963.067993	3.373125	2.458750	-2.275000
-215.330002	-125.050003	965.934998	4.865000	1.964375	-4.576250
-228.201004	-177.022003	961.726013	3.268125	0.385000	-9.148125
-235.764999	-191.417999	984.234985	5.337500	0.144375	-10.548125
-224.723999	-181.841003	1028.947998	5.293750	1.452500	-11.160625
-246.988998	-151.279999	992.592041	3.136875	4.274375	-13.339375
-247.538010	-151.889999	1013.148987	4.550000	6.956250	-16.323126
-242.841003	-91.744003	955.199036	6.151250	9.161250	-20.908125
-217.343002	-216.061996	987.101990	0.231875	5.831875	-28.161875
-195.505005	-186.660004	979.111023	3.123750	9.222500	-22.128750
-196.359009	-196.542007	998.814026	3.517500	5.621875	-23.253124
-191.113007	-148.352005	893.710999	6.238750	8.815625	-18.549999
-177.022003	-188.063004	930.067017	1.347500	-0.074375	-21.319374
-150.914001	-232.531998	970.083008	4.900000	-0.306250	-16.896250
-130.723007	-291.397003	948.001038	3.788750	-1.933750	-11.532500
-126.453003	-311.588013	978.317993	1.330000	-6.803125	1.233750
-105.103004	-311.832001	1039.562012	3.784375	-7.118125	10.395000
-83.509003	-404.674011	1098.244019	-5.385625	-6.383125	19.158125
-109.373001	-411.933014	1081.651978	-10.915625	0.196875	36.382500
-155.611008	-233.751999	1043.770996	-17.053749	-1.085000	62.483749
-172.996002	-96.380005	1042.612061	-28.686874	0.008750	65.953125
-197.212997	-140.238998	1029.375000	-29.544374	4.471250	60.169376
-223.443008	-24.583000	935.617981	-24.171875	9.393125	60.068748
-232.714996	-62.890999	969.351013	-24.276875	7.901250	49.253750
-294.264008	-108.580002	868.945007	-16.025625	8.273125	38.696877
-349.713013	-60.756001	791.780029	-13.400625	4.786250	34.641251
-349.041992	27.816000	805.078003	-2.966250	-1.706250	24.644375
-340.929016	-2.806000	833.138000	4.068750	-6.650000	5.460000
-316.041016	-214.964005	879.192993	11.707500	-8.496250	-6.860000
-329.765991	-116.693001	855.281006	30.091249	-9.629375	-8.159375
-288.102997	-252.845001	967.825989	2.375625	-7.231875	2.966250
-284.321014	-220.087997	954.772034	4.878125	-5.355000	3.797500
-293.348999	-210.389008	940.376038	3.259375	-3.880625	3.053750
-286.516998	-238.449005	956.358032	1.299375	-4.773125	2.209375
-270.596008	-217.464996	970.876038	3.561250	-2.353750	4.641875
-283.222992	-230.580002	962.153015	0.966875	-2.187500	4.956875
-290.665009	-215.085999	926.590027	-0.122500	-1.185625	5.232500
-281.575989	-203.069000	889.989990	3.294375	-7.538125	3.416875
-284.381989	-181.109009	887.306030	5.407500	-9.550625	3.815000
-288.774017	-180.804001	888.648010	10.902500	-13.523125	1.981875
-283.345001	-169.091995	905.728027	13.300000	-15.968750	0.590625
-253.272003	-189.587997	963.190002	14.700000	-20.693750	-3.775625
-221.307999	-277.367004	1034.255005	16.253124	-17.031876	-0.170625
-214.658997	-284.565002	1016.382019	11.532500	-13.593125	6.846875
-213.744003	-373.625000	1150.947998	-4.471250	-17.316250	13.374375
-185.440002	-328.790009	1264.468994	-12.468750	-6.024375	27.282499
-258.579010	-107.299004	1150.032959	-31.968124	14.638750	28.621250
-258.274017	-85.217003	1168.577026	-45.150002	19.359375	22.697500
-258.640015	-44.469002	1125.999023	-47.661251	35.319374	10.342500
-317.871002	-118.156998	968.557983	-47.582500	40.836250	0.748125
-345.808990	-70.150002	896.639038	-36.675625	49.809376	-4.751250
-379.541992	-82.289001	705.160034	-31.045000	50.973125	-16.817499
-406.321014	-181.719009	618.601013	-26.770624	39.462502	-28.896875
-383.751007	-175.863007	527.955017	-11.821250	25.834375	-34.728748
-340.623993	-325.679016	592.187988	-16.506874	8.850625	-46.270000
-252.540009	-604.754028	781.837036	6.090000	-12.302500	-37.979374
-278.830994	-599.812988	674.416016	7.105000	-21.179375	-24.618126
-247.050003	-600.239990	775.371033	-35.525002	-51.480625	-5.175625
-124.318001	-573.400024	884.622009	-72.178749	-67.970001	-0.966875
-157.624008	-644.221008	650.869995	-118.575623	-88.484375	-10.136875
-32.330002	-711.504028	945.255981	-140.384995	-117.009377	-0.258125
22.631001	-629.825012	1097.511963	-93.856873	-70.021873	-5.521250
-109.128998	-634.400024	485.498993	-75.403122	-42.406876	-21.923124
3.721000	-814.166992	709.613037	-126.205627	-103.013748	-14.485625
77.225998	-779.275024	1035.657959	-88.716248	-72.327499	-14.297500
25.375999	-782.325012	707.783020	20.597500	13.829375	-32.794998
74.969002	-755.302002	781.288025	37.869999	30.813126	-26.691875
70.515999	-832.283997	792.634033	77.621246	55.251877	-35.043751
41.114002	-824.049011	770.979004	98.546875	73.018753	-29.500626
83.692001	-644.343018	843.080994	131.897507	90.046249	-22.233749
-4.453000	-706.746033	737.184998	135.629379	85.977501	-37.380001
23.668001	-784.216003	1110.078003	118.264999	80.075623	-13.256250
-237.716995	-203.617996	818.864014	93.856873	64.951248	42.201248
-379.541992	-175.192001	786.046021	46.843124	29.911875	52.040627
-208.498001	-110.410004	979.476990	21.573126	16.983749	75.114372
-296.765015	-2.196000	826.428040	32.173752	21.735001	59.101875
-339.098999	-43.005001	882.975037	1.863750	-5.971875	45.657501
-312.320007	56.669003	970.327026	-3.543750	-5.814375	44.043125
-354.837006	-51.484001	978.135010	-1.557500	-5.945625	22.509375
-342.697998	-159.210007	1043.405029	-14.078750	-6.759375	27.103125
-342.332001	-48.799999	996.007996	-9.205000	2.909375	41.584373
-366.183014	-33.977001	1019.187988	-30.445625	-2.791250	46.773125
-373.015015	22.936001	901.275024	-24.871876	4.125625	40.149376
-460.855011	-1.525000	696.864014	-79.065002	-16.721251	47.013748
-281.393005	5.307000	991.372009	-132.089996	-52.325001	46.532501
-314.272003	-204.289001	1043.405029	-130.401245	-39.248123	7.223125
-287.920013	-227.225006	788.669006	-127.417503	-30.436874	-6.811875
-233.691010	-302.194000	779.640991	-139.483749	-48.098751	-6.470625
-187.880005	-508.130005	1004.731018	-142.445618	-49.586250	-25.221874
-156.647995	-468.662994	804.590027	-74.563126	-17.775625	-34.435623
-185.440002	-640.622009	821.304016	-90.759377	-21.170626	-46.519375
-40.931000	-660.996033	909.510010	-28.481251	-3.482500	-60.331249
-57.218002	-691.496033	750.544006	24.775625	27.435625	-74.252502
-21.777000	-779.153015	895.663025	45.806252	33.105625	-67.843124
26.108000	-657.702026	946.781006	114.213753	64.658127	-57.076248
-1.769000	-758.046997	929.152039	141.470001	85.255623	-67.781876
-44.713001	-752.069031	970.327026	143.342499	109.856247	-25.252501
-71.675003	-486.658020	872.178040	143.342499	102.764374	-7.879375
-185.744995	-613.781982	992.592041	124.175629	85.277496	-6.326250
-188.612000	-351.726013	848.997986	105.577499	90.995628	25.318125
-307.989014	-360.937012	931.531006	-18.480000	-12.753125	39.847500
-161.345001	-316.712006	985.699036	2.817500	-1.242500	59.088749
-301.705994	-357.154999	827.770020	-8.610000	-11.383750	71.815628
-149.815994	-221.673996	1103.612061	-41.768124	-18.331249	110.398750
-237.350998	-61.671001	841.434021	-56.997501	-2.178750	110.958748
-287.920013	-93.085999	811.666016	-117.512497	-29.330000	87.434372
-236.253006	-195.626999	959.468994	-141.750000	-50.294998	59.158749
-219.600006	-322.080017	1014.002991	-143.342499	-46.755627	25.602501
-232.471008	-314.821014	797.514038	-131.368118	-26.363750	-3.434375
-144.020996	-729.987000	892.186035	-143.342499	-66.989998	-35.581875
-107.542999	-670.512024	767.989990	-114.804375	-30.734375	-39.151875
-133.651001	-727.913025	568.763977	-110.363747	-23.226875	-70.481247
-21.289000	-854.366028	823.561035	-60.195625	-20.593124	-80.447502
23.302000	-751.520020	639.890015	25.519375	30.056250	-75.713753
13.359000	-977.647034	551.379028	21.796249	32.480000	-78.644997
134.932007	-1029.313965	883.463013	55.483749	41.733124	-50.706249
83.142998	-846.802002	647.942017	124.932503	100.441254	-45.290001
8.967000	-897.066040	683.992981	143.342499	100.318748	-38.333752
42.456001	-704.122986	845.520996	143.342499	114.559372	-0.971250
-123.830002	-664.778015	1211.399048	136.714371	85.697502	13.125000
-149.999008	-470.981018	765.122986	141.141876	126.529373	37.563751
-380.518005	-186.964996	568.703003	112.678123	74.983124	54.228127
-290.847992	-148.901001	919.941040	24.731874	22.981874	61.919376
-326.838013	-103.578003	850.278992	11.396875	11.725000	50.159374
-328.302002	-140.604996	875.411011	-17.539375	-11.532500	40.783749
-272.975006	-113.094002	989.846985	-38.696877	-5.635000	61.026875
-307.806000	-69.417999	896.578003	-49.494373	-7.345625	63.914375
-289.872009	-128.527008	1008.390991	-80.329376	-26.630625	51.008125
-301.584015	-271.937988	903.837036	-133.739380	-24.504375	65.139374
-289.140015	-276.817993	840.824036	-143.342499	-32.738125	49.896873
-257.786011	-407.541016	903.044006	-143.342499	-44.537498	33.459999
-52.643002	-955.565002	630.801025	108.430000	56.608124	-57.150623
-7.320000	-828.440979	766.160034	143.342499	81.025002	-26.674376
-73.688004	-731.817017	689.056030	143.342499	80.150002	-23.716875
-91.744003	-841.434021	967.460022	143.342499	70.008751	0.678125
-184.341995	-500.688019	824.354004	143.342499	90.720001	39.825626
-336.170990	-197.945007	694.851013	126.612503	63.087502	44.064999
-248.391998	-219.904999	1009.976990	63.796249	30.235624	46.865002
-335.927002	-159.087997	932.080017	66.189377	26.088125	51.673126
-319.274017	-109.495003	937.997009	52.005627	12.328750	42.765625
-315.553009	-87.413002	933.788025	30.975000	10.206875	42.730625
-328.240997	-105.469002	957.700012	-58.493752	-25.523750	55.737499
-300.851990	-128.283005	983.075989	-43.903126	-6.938750	63.122501
-405.710999	-87.413002	717.481995	-97.772499	-26.950001	52.276875
-268.888000	-234.667007	1137.161987	-137.357498	-57.325626	64.128754
-276.878998	-231.983002	973.132996	-143.342499	-17.346874	52.215626
-317.505005	-310.977997	682.041016	-143.342499	-15.758750	10.062500
-252.357010	-486.048004	807.395996	-143.342499	-50.973125	-14.240625
-205.326004	-619.333008	984.601013	-142.896255	-37.340626	-34.986874
-213.195007	-672.281006	639.890015	-58.568127	-1.159375	-56.455002
-112.056999	-775.309998	919.941040	42.008751	23.834999	-51.506874
-141.764008	-789.950012	826.428040	123.633125	65.108749	-51.099998
-222.283997	-633.057983	686.859985	143.342499	80.233124	-44.856876
-178.973999	-626.653015	997.228027	143.342499	80.167503	-29.977501
-303.170013	-488.244019	771.223022	143.342499	102.392502	-16.240000
-335.744019	-275.110016	712.785034	143.342499	77.021873	2.318750
-330.925018	-116.205002	900.238037	111.733124	36.688751	18.270000
-388.997009	-15.799000	880.962036	90.418121	22.504999	12.271875
-371.612000	66.673004	883.707031	38.941875	5.617500	5.044375
-355.752014	61.610001	1047.979980	-35.665001	-13.024375	-4.620000
-223.748001	-182.268005	908.411987	-106.526878	-19.464375	-28.638750
-281.881012	-336.231995	721.264038	-131.079376	-48.536251	-43.811249
-103.151001	-660.630005	996.617981	-143.342499	-86.034378	-49.008751
-99.125000	-688.629028	767.807007	-143.342499	-38.657501	-48.509998
-118.950005	-701.804993	447.313019	-143.342499	-28.940624	-64.268753
-15.494000	-942.267029	785.679993	-143.342499	-78.360626	-59.101875
43.188000	-872.971008	765.671997	-75.114372	-20.343750	-46.204376
2.379000	-846.802002	489.037018	-8.483125	24.071251	-46.952499
53.375000	-941.596008	680.088989	32.081875	27.418125	-31.058125
17.750999	-835.455994	574.010010	143.342499	108.324997	-21.590626
-8.845000	-881.816040	935.923035	143.342499	116.484375	-4.873750
-63.744999	-631.411011	768.539001	143.342499	137.077499	13.247500
-253.882004	-402.112000	612.927979	143.342499	128.025620	37.099998
-345.869995	-24.583000	656.604004	143.342499	76.461876	73.718750
-284.869995	226.126999	768.783020	66.885002	5.503750	90.251877
-289.993988	144.813995	923.783997	-27.943125	-32.112499	23.366875
-277.183990	-90.402000	1042.612061	-77.393753	-49.551250	-20.286875
-217.160004	-182.268005	957.273010	-99.137497	-44.629375	-19.184376
-131.699005	-369.721008	998.325989	-44.016876	-21.831249	-15.785000
-156.587006	-314.699005	890.478027	-50.185623	-30.253124	-4.851875
-71.187004	-364.536011	1070.610962	-30.213751	-11.143125	3.381875
-154.147003	-306.342010	811.483032	-2.187500	-2.021250	5.525625
-161.466995	-284.808990	968.070007	-31.981251	-25.584999	16.480625
-103.821999	-304.756012	1124.718018	-8.566250	-9.563750	9.458750
-175.985001	-273.890015	950.014038	25.707500	10.727500	1.623125
-192.272003	-269.558990	953.125000	10.832500	2.108750	1.785000
-184.647003	-270.351990	985.515991	0.704375	2.756250	2.222500
-175.009003	-274.134003	985.638000	5.691875	6.225625	2.148125
-179.766998	-308.050018	973.132996	-2.021250	5.906250	0.498750
-185.134995	-293.898010	963.861023	-1.295000	4.335625	2.213750
-173.484009	-278.526001	958.614990	-2.563750	4.532500	0.341250
-187.147995	-349.834991	956.968018	-5.901875	2.576875	-0.096250
-164.882996	-288.895996	936.593994	-0.704375	3.543750	6.418125
-177.205002	-307.317993	932.445984	-4.309375	0.892500	4.501875
-188.673004	-329.826996	949.770020	-1.649375	0.030625	9.117500
-190.320007	-256.932007	920.367981	1.505000	0.472500	11.300625
-192.760010	-286.821991	955.442993	-2.642500	-0.546875	8.321250
-206.119003	-250.039001	954.467041	2.843750	-3.736250	7.227500
-205.692001	-284.748016	990.457031	5.534375	0.805000	5.053125
-213.682999	-250.160995	919.087036	10.885000	2.861250	4.808125
-204.899002	-237.290009	976.366028	-0.402500	-2.611875	2.878750
-187.270004	-254.979996	997.898987	-1.378125	-2.660000	2.056250
-184.403000	-277.244995	962.458008	1.181250	0.542500	-2.388750
-184.830002	-312.075989	943.669983	-4.029375	-0.043750	-2.135000
-175.740997	-324.703003	942.694031	-6.790000	-1.881250	1.334375
-170.251007	-318.847015	952.148987	-2.275000	-0.713125	4.112500
-186.233002	-333.791992	944.768005	-4.392500	-3.430000	10.876250
-180.132996	-286.212006	969.229004	-0.266875	-4.628750	12.013750
-185.744995	-260.347992	953.918030	1.413125	-5.070625	11.112500
-185.561996	-228.139999	984.052002	-0.105000	-3.587500	7.564375
-197.701004	-266.752991	972.645020	3.325000	-1.706250	2.436875
-181.779999	-255.468002	968.314026	1.645000	-1.408750	2.003750
-183.244003	-297.497009	984.418030	0.091875	0.586250	0.262500
-186.660004	-302.925995	941.046997	0.017500	0.831250	3.325000
-175.923996	-280.661011	958.554016	-1.505000	-1.185625	5.114375
-178.119995	-295.118011	974.718994	-2.756250	-2.550625	2.905000
-184.891006	-288.347015	954.650024	-1.732500	-0.140000	4.173750
-189.710007	-283.467010	954.528015	-3.202500	-1.120000	3.828125
-180.132996	-281.575989	968.802002	-1.916250	-0.542500	4.571875
-183.365997	-263.337006	951.112000	-1.159375	0.481250	3.819375
-193.796997	-284.808990	941.291016	-1.872500	0.647500	1.124375
-191.113007	-300.973999	961.665039	1.706250	0.577500	3.202500
-200.873001	-274.011993	938.484985	-1.229375	-1.146250	8.920625
-224.785004	-329.705017	965.630005	-3.968125	-3.416875	5.350625
-155.794006	-230.518997	972.096008	-38.836876	-2.388750	40.394375
-165.249008	-212.585007	970.022034	-69.571251	-6.741875	20.938749
-209.473999	-363.132996	784.582031	-74.445000	-4.138750	6.466250
-136.029999	-335.500000	702.354004	-125.873123	-40.416248	2.905000
-88.816002	-658.129028	874.130005	-143.342499	-53.068748	-26.271875
-31.842001	-831.918030	797.270020	-133.341248	-37.572498	-27.868750
-47.091999	-770.307983	632.509033	-95.930626	-11.703125	-4.965625
-41.541000	-773.114014	726.265991	-62.540627	-16.191875	-4.676875
-55.265999	-792.145996	688.263000	-0.437500	1.929375	-16.065001
-59.048000	-780.921997	619.210999	33.814377	14.030625	-14.927500
-62.159000	-794.708008	670.145996	58.362499	14.656250	-6.422500
-77.835999	-705.770020	640.255981	41.474998	11.169375	2.909375
-83.082001	-675.880005	675.087036	2.139375	-3.255000	4.090625
-69.662003	-714.249023	736.270020	-26.696251	-10.871875	5.722500
-54.900002	-717.726013	770.369019	-29.710625	-8.658125	1.220625
-70.028000	-731.145996	681.552979	-23.104376	-8.938125	-11.856250
-61.671001	-749.202026	631.106018	-29.404375	-11.532500	-17.692499
-32.818001	-804.163025	705.770020	-41.313126	-19.403126	-16.555000
-6.710000	-709.307983	652.273010	-25.025000	-8.649375	-15.806875
35.075001	-768.843994	781.288025	29.806875	9.948750	-26.359375
36.478001	-647.210022	708.759033	116.283127	52.421249	-31.408125
-82.777000	-707.112000	614.026001	116.812500	46.738125	-43.662498
48.494999	-656.299011	890.112000	98.643127	32.405624	-15.124375
12.566000	-621.041016	824.841980	126.266876	58.003750	-14.301875
-62.586002	-588.528015	802.942993	105.796249	43.456875	-8.106875
-35.257999	-452.376007	955.015991	98.201248	46.703125	9.537500
-134.871002	-398.635010	843.020020	107.108749	40.950001	7.625625
-115.350998	-412.726013	1093.791016	123.843124	42.074375	14.249375
-122.670998	-97.904999	787.327026	139.645630	81.466873	32.370625
-226.188004	70.393997	825.452026	14.673750	12.495000	12.512500
-239.608002	4.758000	769.637024	-35.918751	-23.874374	-14.791875
-135.175995	-133.223999	859.612000	-107.743126	-69.790001	-41.107498
19.276001	-230.701996	1114.652954	-139.326248	-90.230003	-58.677502
5.795000	-385.641998	1097.634033	-125.199371	-69.553749	-87.867500
28.853001	-632.570007	923.174011	-124.919373	-69.868752	-76.803123
93.269005	-556.320007	1043.588013	-102.514999	-63.398125	-57.920624
112.301003	-512.400024	838.994019	-56.936249	-21.481251	-67.760002
16.348000	-667.218018	693.997009	-46.978748	-19.919374	-71.439377
232.166000	-522.770020	760.669983	-57.570625	-41.404999	-33.915001
228.872009	-725.168030	735.476990	-51.590000	-34.160000	-37.944374
249.307007	-608.841003	534.726013	-52.141251	-42.013126	-18.200001
317.871002	-664.716980	707.356018	-74.523750	-78.780624	-22.264376
449.143005	-734.867004	862.418030	-65.349373	-66.080002	-15.391250
410.347015	-653.005005	646.721985	-35.472500	-21.463751	-1.382500
330.131989	-764.330017	440.175995	-37.686249	-27.991249	-5.066250
410.468994	-728.401001	545.096008	-49.896873	-46.751251	9.476250
420.290009	-699.182007	481.533997	-49.236252	-40.503750	13.111875
348.859009	-894.077026	314.210999	-52.132500	-39.388126	7.805000
469.395020	-936.655029	343.308014	-98.595001	-90.969376	40.254375
