A_X[mg]	A_Y[mg]	A_Z[mg]	G_X[dps]	G_Y[dps]	G_Z[dps]	
8.784000	-5.368000	1007.658997	0.704375	-0.096250	-0.813750
17.263000	-9.516000	1003.694031	0.805000	-0.052500	-0.770000
9.943000	-5.795000	1002.351990	0.918750	-0.144375	-0.818125
12.871000	-3.538000	1006.317017	0.905625	-0.131250	-0.840000
8.174000	-3.050000	1001.315002	0.752500	-0.122500	-1.001875
9.638000	-0.549000	1004.853027	0.595000	-0.017500	-0.958125
7.930000	-5.856000	1000.278015	0.809375	-0.091875	-0.971250
14.457000	-4.392000	1000.888000	0.669375	0.039375	-0.997500
9.150001	-5.490000	1000.765991	0.805000	-0.008750	-0.962500
7.320000	-9.760000	998.936035	0.901250	-0.052500	-0.905625
5.246000	-8.052000	1002.535034	0.787500	-0.043750	-0.875000
12.261000	-2.623000	1001.254028	0.853125	-0.105000	-0.940625
8.174000	-7.442000	1001.376038	0.927500	-0.065625	-0.905625
15.189000	-6.100000	1003.572021	0.958125	-0.078750	-0.826875
15.494000	-5.734000	1004.791992	0.870625	-0.175000	-1.058750
6.527000	-2.257000	1001.619995	1.010625	-0.074375	-0.883750
13.115000	-8.113000	1001.376038	0.796250	-0.091875	-0.875000
15.250000	-6.466000	1001.254028	1.028125	-0.004375	-0.879375
9.455000	-2.501000	1002.718018	0.901250	0.039375	-0.883750
13.115000	-5.490000	1005.829041	0.857500	0.004375	-1.006250
13.542000	-5.612000	1000.888000	0.918750	-0.083125	-1.019375
6.161000	-2.013000	1002.473999	0.866250	-0.052500	-0.958125
10.919000	-9.333000	1003.450012	0.787500	-0.100625	-0.953750
17.019001	-6.039000	999.790039	0.695625	-0.065625	-0.927500
10.675000	-6.344000	1003.877014	0.927500	-0.100625	-0.831250
11.224000	-7.198000	1006.134033	0.910000	-0.096250	-0.905625
3.355000	-3.843000	1007.109985	0.883750	0.074375	-0.993125
9.699000	0.549000	1002.230042	0.787500	0.030625	-0.892500
13.359000	-2.196000	1001.254028	0.805000	-0.039375	-0.875000
9.394000	-3.904000	1002.596008	0.778750	-0.065625	-0.888125
16.042999	-9.455000	1004.182007	0.800625	-0.056875	-1.023750
10.614000	-7.686000	1002.351990	0.730625	-0.052500	-0.966875
8.296000	-3.965000	1004.059998	0.840000	-0.035000	-0.848750
9.760000	-7.564000	998.387024	0.805000	-0.148750	-0.861875
7.686000	-3.355000	999.911987	0.778750	-0.021875	-0.945000
10.309000	-6.954000	1001.742004	1.015000	-0.021875	-0.918750
7.808000	-5.612000	1003.083984	0.861875	0.008750	-0.931875
13.481000	-7.564000	1000.522034	0.796250	-0.183750	-0.997500
8.052000	-3.965000	1008.390991	0.918750	-0.096250	-0.931875
12.017000	-2.318000	1001.192993	0.704375	-0.078750	-0.988750
13.054000	-8.845000	1004.487000	0.835625	-0.083125	-1.045625
8.296000	-5.795000	1002.840027	1.001875	-0.039375	-0.918750
12.383000	-10.675000	998.570007	0.927500	-0.091875	-0.818125
13.542000	-1.037000	997.960022	0.608125	0.100625	-1.006250
8.784000	-5.856000	999.546021	0.870625	-0.074375	-0.918750
10.248000	-4.514000	1002.901001	0.945000	-0.179375	-0.910000
14.091001	-7.808000	1002.718018	0.826875	0.096250	-0.879375
5.429000	-3.599000	1000.888000	0.835625	0.105000	-0.914375
11.407001	-5.368000	1001.376038	0.853125	0.035000	-0.879375
13.176001	-6.344000	1004.731018	0.853125	0.035000	-0.879375
13.176001	-6.344000	1003.572021	0.796250	-0.113750	-0.905625
8.296000	-2.135000	1003.572021	0.888125	-0.039375	-0.936250
12.139000	-8.357000	1003.572021	0.875000	-0.035000	-0.984375
15.433001	-5.551000	1001.132019	0.879375	0.008750	-0.940625
10.309000	-4.758000	1003.205994	0.861875	-0.043750	-0.861875
16.409000	-4.514000	1000.278015	0.813750	0.021875	-0.879375
16.348000	-2.074000	998.936035	0.735000	0.052500	-0.945000
9.089000	-10.553000	1000.278015	0.853125	-0.100625	-0.945000
9.028000	-6.649000	1001.864014	0.765625	-0.096250	-0.962500
13.725000	-7.198000	1000.033997	0.888125	-0.070000	-0.931875
16.348000	-8.784000	1002.291016	0.918750	-0.170625	-0.905625
6.161000	-4.697000	1005.829041	0.918750	-0.210000	-0.870625
14.945000	-3.538000	1003.450012	0.888125	0.013125	-0.879375
10.980000	-4.880000	1005.402039	0.748125	-0.017500	-0.971250
9.272000	-5.002000	1001.986023	0.853125	-0.004375	-0.923125
9.394000	-9.882000	1000.765991	0.958125	-0.083125	-0.910000
13.603000	-1.159000	1003.205994	0.940625	0.078750	-0.936250
8.784000	-4.880000	1003.816040	0.857500	0.017500	-0.940625
11.773000	-6.710000	1003.694031	0.857500	-0.008750	-0.826875
13.908000	-8.906000	1000.643982	0.848750	-0.043750	-0.910000
14.640000	-3.477000	1003.205994	0.984375	-0.157500	-0.861875
10.248000	-5.124000	1005.036011	1.023750	-0.175000	-0.892500
9.272000	-9.150001	1002.596008	0.822500	-0.253750	-0.901250
10.492001	-6.832000	1005.950989	0.673750	-0.043750	-0.905625
12.200000	-6.588000	999.851013	0.595000	0.074375	-0.901250
11.834001	-4.148000	1003.267029	0.800625	-0.070000	-0.831250
15.921000	-3.050000	1003.937988	0.835625	0.000000	-0.918750
13.908000	-10.919000	1000.888000	0.730625	-0.043750	-0.844375
11.224000	-3.355000	1005.218994	0.879375	-0.035000	-0.866250
8.784000	-7.381000	1003.632996	0.700000	-0.026250	-0.988750
7.198000	-3.233000	1003.937988	0.853125	0.008750	-0.953750
11.529000	-8.296000	1004.426025	1.015000	-0.035000	-0.809375
10.370000	-8.784000	1002.230042	0.673750	-0.122500	-0.888125
18.117001	-9.028000	1006.072998	0.682500	-0.039375	-0.927500
13.786000	-12.322001	1002.108032	0.831250	0.017500	-0.901250
11.224000	-6.893000	998.692017	0.901250	-0.030625	-0.883750
7.930000	-2.867000	1004.121033	0.783125	-0.056875	-0.875000
11.651000	-3.172000	999.546021	0.853125	-0.105000	-0.936250
14.945000	-2.562000	1001.132019	0.980000	-0.030625	-0.875000
10.980000	-2.806000	998.204041	0.752500	-0.105000	-0.962500
9.150001	-5.612000	1001.681030	0.818125	-0.100625	-0.958125
6.466000	-7.198000	997.960022	0.883750	0.061250	-0.927500
9.577000	-3.477000	1002.901001	0.752500	-0.008750	-1.001875
11.773000	-10.309000	1001.376038	0.805000	-0.113750	-0.958125
11.346000	-6.283000	1003.328003	0.787500	-0.048125	-0.875000
16.775000	-4.148000	1005.280029	0.883750	0.026250	-0.945000
8.235000	-7.930000	1005.645996	0.796250	-0.056875	-0.949375
9.272000	-8.418000	1001.254028	0.848750	-0.122500	-0.892500
6.466000	-3.355000	1001.986023	0.770000	-0.083125	-0.901250
12.505000	-1.952000	1003.328003	0.791875	-0.017500	-0.866250
11.712000	-6.893000	1003.328003	0.835625	-0.078750	-0.936250
7.564000	-2.989000	998.447998	0.809375	0.061250	-0.853125
9.943000	-5.368000	1004.121033	0.888125	-0.004375	-0.888125
12.749001	-7.076000	1002.351990	0.901250	0.052500	-0.905625
15.433001	-6.832000	998.936035	1.111250	-0.323750	-0.931875
13.908000	0.305000	1001.803040	0.988750	-0.175000	-0.927500
6.771000	-8.723001	1003.205994	0.848750	-0.008750	-0.975625
12.749001	-6.710000	1003.083984	0.936250	-0.078750	-0.866250
12.932000	-4.026000	1002.718018	0.936250	-0.048125	-0.857500
12.688000	-5.856000	1004.791992	0.888125	-0.105000	-0.958125
13.054000	2.745000	1006.134033	0.888125	-0.105000	-0.958125
13.054000	2.745000	1006.134033	0.857500	-0.017500	-0.927500
9.516000	-6.527000	999.119019	0.691250	-0.048125	-0.962500
11.346000	-3.477000	997.960022	0.905625	-0.188125	-0.896875
13.298000	-3.416000	999.302002	0.695625	-0.087500	-0.918750
14.274000	-5.734000	1000.033997	0.800625	-0.008750	-0.914375
12.078000	-7.442000	1001.010010	0.840000	-0.013125	-0.923125
10.370000	-4.087000	1002.351990	0.800625	-0.052500	-0.875000
13.847000	-5.002000	1001.376038	0.971250	-0.144375	-0.910000
9.028000	-5.490000	1000.765991	0.892500	-0.043750	-0.993125
11.590000	-4.514000	1003.877014	0.940625	-0.100625	-0.835625
11.590000	-8.662000	1002.840027	0.770000	0.035000	-0.953750
10.004000	-1.769000	1001.864014	0.783125	0.096250	-0.888125
10.614000	-8.113000	1001.986023	0.883750	-0.021875	-0.853125
7.808000	-7.076000	1005.829041	0.848750	-0.039375	-0.896875
8.662000	-5.856000	1001.986023	0.945000	-0.056875	-0.892500
13.237000	-5.490000	999.302002	0.931875	-0.043750	-0.997500
13.786000	-3.660000	1001.559021	0.826875	-0.035000	-0.923125
9.638000	-5.612000	1002.962036	0.800625	0.004375	-0.879375
13.969000	-5.124000	1002.596008	0.818125	-0.113750	-0.888125
11.712000	-12.383000	1001.742004	0.927500	-0.214375	-0.910000
7.320000	-5.795000	1002.108032	0.813750	-0.157500	-0.905625
7.930000	-3.416000	1005.585022	0.643125	0.078750	-0.927500
14.823000	-6.588000	1002.108032	0.756875	-0.131250	-0.840000
12.200000	-4.270000	1001.376038	0.840000	0.000000	-0.875000
9.150001	-9.394000	1002.718018	0.730625	-0.118125	-0.861875
9.516000	-6.771000	1001.742004	0.770000	-0.083125	-0.888125
14.335000	-6.222000	1003.205994	0.770000	-0.118125	-0.923125
11.834001	-6.710000	999.790039	0.721875	0.026250	-0.901250
5.673000	-5.856000	1003.632996	0.962500	-0.100625	-0.848750
10.065001	-6.100000	1001.864014	0.988750	-0.070000	-0.826875
16.775000	-1.281000	1006.072998	0.818125	-0.118125	-0.861875
12.810000	-6.710000	998.020996	0.923125	-0.021875	-0.892500
9.272000	-5.368000	1001.803040	0.870625	-0.113750	-0.945000
15.311000	-2.379000	1001.986023	0.682500	0.013125	-0.914375
9.638000	-3.294000	999.424011	0.975625	-0.017500	-0.918750
13.359000	-4.148000	1003.632996	0.883750	0.100625	-0.914375
9.394000	-3.172000	1001.986023	0.840000	0.135625	-1.001875
10.004000	-6.588000	1003.328003	0.840000	0.140000	-0.910000
12.627000	-6.100000	999.302002	0.980000	0.035000	-0.818125
10.004000	-4.514000	1001.924988	0.988750	-0.004375	-0.896875
12.627000	-5.978000	1002.473999	0.743750	0.039375	-0.770000
19.947001	-7.320000	998.936035	0.809375	-0.056875	-0.940625
10.187000	-4.819000	1006.927002	0.813750	-0.065625	-1.098125
7.198000	-7.198000	1003.694031	0.713125	-0.074375	-0.949375
6.954000	-10.492001	1004.304016	0.791875	0.083125	-0.896875
8.540000	-9.028000	1001.619995	0.822500	-0.043750	-0.910000
11.163000	-5.795000	998.692017	0.778750	-0.118125	-0.888125
10.614000	-2.745000	999.911987	0.835625	-0.126875	-0.883750
14.945000	-5.734000	998.692017	0.735000	-0.109375	-0.918750
6.161000	-6.832000	998.936035	0.918750	-0.030625	-0.984375
5.856000	-7.198000	996.984009	0.984375	-0.017500	-0.840000
12.749001	-10.736000	1001.315002	0.857500	0.065625	-0.761250
11.346000	-8.601000	1001.010010	0.778750	0.004375	-0.901250
12.932000	-3.111000	1000.522034	0.927500	-0.052500	-0.844375
12.444000	-10.675000	1001.864014	0.980000	-0.109375	-0.945000
13.420000	-4.575000	1004.609009	0.866250	0.083125	-0.896875
15.433001	-0.671000	1006.744019	0.809375	0.004375	-0.835625
16.836000	-6.161000	1004.791992	0.831250	-0.065625	-0.918750
7.625000	-9.272000	998.997009	0.831250	-0.074375	-0.940625
10.065001	-11.468000	1001.315002	0.770000	-0.013125	-0.783125
8.906000	-3.233000	999.911987	0.743750	0.017500	-0.931875
12.017000	-4.392000	1000.278015	0.787500	0.021875	-0.927500
9.272000	-5.734000	1001.497986	0.713125	0.030625	-0.848750
9.028000	-8.174000	1001.254028	0.896875	-0.008750	-0.997500
10.858000	-5.856000	1003.632996	0.905625	-0.118125	-1.098125
10.980000	-8.052000	1001.254028	0.892500	-0.140000	-0.870625
14.579000	-6.954000	1006.439026	0.883750	-0.043750	-0.910000
11.224000	-6.710000	1003.816040	0.971250	-0.109375	-0.984375
12.688000	-7.076000	1007.293030	0.835625	-0.087500	-0.962500
11.224000	-4.331000	998.875000	0.800625	0.017500	-0.962500
10.736000	-3.660000	1003.755005	0.888125	-0.113750	-0.945000
9.760000	-7.076000	1001.986023	0.888125	0.052500	-0.940625
12.444000	-4.880000	1001.497986	0.892500	0.096250	-0.879375
13.298000	-9.638000	1000.888000	0.831250	0.091875	-0.993125
9.638000	-7.198000	1000.278015	0.818125	0.039375	-0.945000
11.468000	-1.769000	1005.218994	0.700000	0.048125	-0.905625
13.054000	-5.490000	1000.765991	0.809375	0.126875	-0.857500
13.908000	-5.002000	1003.389038	0.809375	0.126875	-0.879375
13.908000	-5.002000	1004.791992	0.936250	-0.113750	-0.879375
12.688000	-12.993000	1004.791992	1.067500	-0.210000	-1.050000
9.516000	-4.697000	999.119019	0.949375	-0.109375	-0.958125
13.115000	-4.148000	1002.413025	0.809375	-0.070000	-0.905625
13.908000	-10.065001	1005.463013	0.831250	-0.004375	-0.840000
15.006001	-6.283000	1002.230042	0.866250	0.035000	-0.949375
15.616000	-8.418000	1003.816040	0.809375	0.070000	-0.927500
7.137000	-6.344000	1004.304016	0.805000	-0.109375	-0.953750
13.725000	-4.392000	1000.888000	0.783125	-0.013125	-0.940625
7.625000	-3.172000	1002.351990	0.861875	-0.135625	-0.822500
12.749001	-3.233000	1003.389038	0.822500	-0.021875	-1.015000
10.492001	-7.076000	1004.669983	0.892500	0.074375	-0.866250
8.540000	-2.013000	998.509033	0.796250	0.035000	-0.923125
16.775000	-7.564000	1003.145020	0.875000	-0.126875	-0.905625
8.113000	-9.394000	1001.986023	0.783125	-0.065625	-0.910000
12.749001	-6.405000	1005.218994	0.805000	-0.021875	-0.905625
12.322001	-7.686000	1004.059998	0.713125	0.070000	-0.958125
7.564000	-7.808000	1001.619995	0.783125	-0.056875	-0.896875
14.945000	-8.906000	1003.328003	0.914375	-0.231875	-0.896875
16.714001	-7.076000	1001.742004	0.787500	-0.065625	-0.927500
10.919000	-5.978000	1000.156006	0.761250	-0.131250	-0.980000
11.590000	-10.004000	1003.632996	0.739375	-0.061250	-0.918750
16.409000	-6.161000	1000.888000	0.826875	-0.131250	-0.831250
8.113000	-5.124000	1003.083984	0.888125	-0.078750	-0.805000
11.895000	-3.782000	1004.059998	0.651875	0.078750	-0.936250
12.322001	-5.978000	1002.473999	0.673750	-0.118125	-1.001875
14.030000	-3.355000	1004.548035	0.853125	-0.140000	-0.918750
15.006001	-3.782000	1004.548035	0.883750	-0.087500	-0.953750
11.102000	-7.930000	999.546021	0.791875	-0.105000	-0.975625
10.004000	-10.980000	1002.901001	0.783125	-0.021875	-0.870625
11.590000	-8.784000	1001.010010	0.840000	-0.087500	-0.914375
12.688000	-5.307000	1003.510986	0.861875	-0.087500	-0.931875
14.030000	-5.246000	1003.572021	0.918750	-0.122500	-0.892500
10.248000	-9.394000	1002.596008	0.813750	0.004375	-0.835625
13.481000	-9.150001	1001.010010	0.818125	0.043750	-0.853125
12.932000	-7.686000	1002.718018	0.800625	-0.052500	-0.835625
14.518001	-2.501000	1002.473999	0.678125	-0.161875	-1.019375
14.884000	-11.895000	1009.855042	0.743750	-0.048125	-0.953750
11.590000	-4.941000	1004.426025	0.826875	-0.043750	-0.940625
9.028000	-5.002000	1005.280029	0.818125	0.030625	-0.918750
11.224000	-10.797000	1003.083984	0.700000	-0.021875	-0.853125
25.864000	-6.771000	1005.036011	0.910000	0.161875	-1.106875
12.078000	-26.962000	1010.098999	1.233750	-0.210000	7.100625
-202.641998	-51.179001	913.536011	1.868125	0.131250	21.875000
-20.862000	23.668001	898.773987	11.633125	-3.430000	5.521250
-196.542007	-3.965000	1059.630981	7.350000	-1.133125	6.216875
404.674011	36.295002	985.455017	-1.443750	0.787500	1.995000
135.481003	11.407001	1026.203003	-2.450000	-0.065625	-1.863750
225.334000	-139.263000	1115.690063	9.034375	-13.838125	-2.170000
-219.783005	102.297005	1102.148071	0.984375	-3.373125	17.101875
-194.895004	28.365000	991.981995	-4.624375	7.953750	8.006250
-148.352005	40.260002	934.337036	-10.793125	3.040625	-12.145000
-292.800018	135.419998	1105.076050	-3.946250	0.901250	-23.100000
257.968994	3.233000	1213.656006	-0.441875	0.402500	-30.012501
261.140991	29.768000	962.335999	8.631875	-5.849375	3.005625
134.078003	-144.082001	1073.905029	11.952500	-16.550625	-0.713125
-195.566010	53.436001	999.606995	-1.260000	5.175625	-2.716875
-380.395996	-150.059998	406.626007	7.595000	4.200000	-15.176875
-521.184021	-5.795000	1156.133057	4.331250	2.835000	-37.410625
12.139000	-43.859001	1632.359985	1.400000	1.828750	-30.769375
602.436035	156.281998	922.380981	-0.065625	-2.086875	-7.201250
148.046997	-52.399002	1041.026001	0.481250	-1.605625	24.412500
22.691999	-45.811001	950.989990	-0.923125	-0.021875	11.510625
-45.079002	79.666000	1150.947998	1.093750	3.342500	13.584375
-172.020004	-99.247002	830.027039	0.468125	4.891250	12.460000
-113.216003	-41.236000	896.517029	0.341250	1.491875	1.675625
6.222000	-6.161000	995.337036	0.603750	0.061250	-1.308125
-3.965000	-3.904000	1003.023010	0.892500	0.074375	-0.888125
6.100000	0.427000	1001.497986	0.923125	-0.026250	-0.730625
19.398001	-2.074000	1000.400024	0.752500	0.035000	-0.739375
24.827000	-7.320000	1000.765991	0.892500	-0.074375	-0.923125
17.629000	-6.710000	1000.888000	0.831250	-0.166250	-1.168125
-2.074000	-2.867000	1002.840027	0.918750	-0.144375	-1.093750
5.917000	-8.967000	1000.278015	0.883750	-0.017500	-0.752500
19.398001	-4.087000	1002.535034	0.918750	0.035000	-0.756875
18.788000	-14.091001	1002.230042	0.940625	-0.087500	-0.888125
13.359000	-6.893000	1000.278015	0.927500	-0.205625	-1.019375
5.185000	-0.549000	1004.121033	0.931875	-0.148750	-0.936250
5.978000	-5.246000	1000.278015	0.743750	-0.078750	-0.905625
13.725000	-5.856000	999.790039	0.945000	-0.039375	-0.818125
18.605000	-8.662000	1004.853027	0.844375	-0.026250	-0.988750
14.884000	-6.344000	1001.132019	0.844375	-0.026250	-1.146250
14.884000	-6.344000	1003.999023	0.695625	-0.109375	-1.146250
10.004000	-4.270000	1003.999023	0.940625	-0.135625	-1.111250
4.697000	-5.368000	999.302002	0.791875	-0.061250	-0.927500
8.967000	-5.490000	1002.535034	0.923125	-0.083125	-0.840000
16.409000	-4.148000	1004.182007	0.988750	-0.070000	-0.883750
18.056000	-7.442000	1005.036011	0.818125	-0.056875	-0.831250
13.176001	-4.697000	1004.548035	0.700000	-0.148750	-0.984375
2.867000	-7.564000	1003.083984	0.809375	0.017500	-0.997500
11.163000	-2.501000	1001.010010	0.704375	0.004375	-0.910000
13.298000	-6.344000	1006.804993	0.914375	-0.017500	-0.910000
14.274000	-4.270000	1005.523987	0.901250	-0.043750	-0.848750
10.492001	-9.394000	996.923035	0.975625	-0.122500	-0.988750
5.734000	-7.076000	1000.338989	0.778750	-0.048125	-0.988750
-9.516000	-30.927000	995.337036	0.105000	-1.518125	-5.390000
-37.027000	18.849001	996.739990	0.673750	-0.367500	-3.224375
-159.576004	-52.033001	988.992981	2.900625	-0.118125	-1.505000
-347.455994	-64.111000	1357.615967	3.316250	-0.752500	-14.490000
100.772003	34.587002	936.106018	3.360000	-0.472500	-35.091873
557.845032	135.237000	1025.776001	3.653125	-2.161250	-6.545000
323.910004	-48.556000	1080.614990	5.468750	-5.131875	11.025000
147.803009	-8.357000	1189.378052	-3.666250	1.658125	14.122500
-372.404999	42.272999	936.960022	2.016875	1.653750	23.677500
-302.011017	7.930000	1047.796997	1.846250	1.198750	1.421875
28.121000	-109.007004	1204.384033	2.349375	1.583750	-22.802500
443.347992	148.535004	981.551025	0.437500	-1.343125	-8.163750
407.723999	98.087997	1071.404053	-0.118125	-1.246875	7.581875
-49.593002	-8.418000	1067.011963	1.391250	-1.728125	19.879999
-449.143005	-170.738998	1117.581055	1.960000	0.651875	9.476250
-388.692017	-113.216003	945.500000	0.525000	0.455000	-6.422500
143.777008	33.611000	698.083984	-0.122500	-0.179375	-16.944374
371.856018	82.654999	1064.816040	-1.211875	0.485625	-0.853125
204.410995	3.660000	1196.393066	-0.087500	0.835625	10.963750
-168.725998	-11.224000	827.465027	-1.067500	0.013125	11.558750
-5.795000	-18.849001	968.314026	-0.498750	0.144375	1.693125
-30.683001	-44.347000	998.570007	0.008750	0.564375	5.009375
35.441002	14.518001	1000.033997	0.787500	0.065625	1.365000
15.128000	-9.943000	1001.497986	1.080625	-0.091875	-0.945000
8.479000	-4.453000	1001.497986	0.940625	-0.122500	-1.102500
1.769000	-3.172000	1005.463013	0.717500	0.078750	-0.958125
14.396000	-5.612000	1006.988037	0.651875	-0.035000	-0.875000
17.141001	-7.686000	997.166992	0.735000	0.026250	-0.857500
15.250000	-8.662000	1001.437012	0.756875	-0.048125	-0.940625
12.932000	-3.843000	1004.975037	0.752500	-0.048125	-0.980000
8.540000	0.549000	1003.450012	0.643125	-0.043750	-0.953750
8.418000	-8.601000	1003.328003	0.927500	-0.030625	-0.822500
16.896999	-8.540000	1001.376038	0.765625	0.043750	-0.945000
15.006001	-6.100000	1003.937988	0.726250	-0.161875	-1.019375
10.980000	-6.344000	1003.694031	0.721875	-0.070000	-1.019375
4.087000	-6.466000	999.790039	0.813750	-0.065625	-0.910000
4.758000	-5.856000	1003.267029	0.765625	0.000000	-0.896875
14.091001	-2.379000	1005.890015	0.608125	-0.021875	-0.809375
17.263000	-7.320000	1000.095032	0.713125	0.004375	-0.914375
11.041000	-5.124000	1003.389038	0.853125	-0.192500	-0.993125
11.712000	-2.928000	1006.804993	0.826875	-0.122500	-0.997500
5.917000	-8.174000	1002.840027	0.704375	-0.065625	-0.962500
7.686000	-5.856000	1002.840027	0.835625	-0.087500	-0.914375
9.943000	-7.808000	996.801025	0.800625	0.026250	-0.945000
-30.927000	-95.465004	1092.327026	5.197500	-8.496250	-2.944375
54.961002	26.352001	1113.188965	9.458750	-6.908125	7.275625
-96.441002	-8.052000	994.605042	2.358125	-1.006250	3.224375
80.825005	-28.670000	1852.020996	19.254375	7.581875	-21.800625
-190.137009	-12.810000	768.600037	11.340000	6.720000	-10.136875
-16.653000	-148.412994	1998.604004	4.243750	-0.253750	17.303125
1994.943970	1994.943970	790.621033	2.253125	-0.608125	36.981876
135.602997	-17.080000	280.843994	-0.411250	0.686875	39.396873
79.971001	38.125000	1042.001953	-0.091875	0.389375	18.309376
22.021000	-16.531000	1007.598022	0.621250	0.192500	7.984375
1.220000	-18.300001	997.655029	0.870625	0.048125	3.749375
15.738000	-7.320000	998.814026	0.945000	0.074375	1.137500
532.468994	-56.852001	1070.123047	13.553750	-6.291250	8.102500
116.022003	1.708000	762.744019	4.379375	-3.202500	-18.681250
-198.250000	103.761002	955.687012	-7.061250	4.733750	15.299375
-274.011993	17.385000	1001.742004	-0.914375	1.723750	-0.791875
4.880000	-29.158001	1131.244995	4.348750	-2.677500	-9.808750
359.533997	65.514000	1069.817993	1.662500	-0.336875	-1.916250
359.045990	21.289000	1007.354004	-4.388125	1.955625	10.307500
-129.137009	-14.945000	903.471008	-1.452500	-0.770000	25.777500
-345.748016	-78.202003	1010.892029	0.288750	0.043750	13.011250
-60.084999	-117.791000	1049.016968	1.693125	-1.592500	-8.491875
399.550018	30.073000	997.838013	0.026250	-0.616875	-1.645000
409.005005	120.536003	814.350037	2.909375	-0.175000	17.036249
-437.553009	-42.395000	1053.531006	0.647500	0.818125	18.033751
-296.093994	-2.257000	919.208984	6.855625	-2.690625	-6.553750
257.054016	-32.574001	926.528992	4.335625	-1.920625	-23.896250
439.566010	-58.376999	968.802002	-3.666250	2.401875	5.656875
-72.346001	63.562000	877.668030	-0.778750	1.513750	23.174376
-277.671997	-115.960999	1023.518982	1.006250	0.647500	5.228125
84.485001	-10.492001	939.583008	4.243750	-2.458750	-2.655625
152.317001	-1.281000	996.191040	-0.673750	0.988750	2.270625
-194.406998	-83.814003	1082.322998	7.004375	-3.333750	-6.540625
-4.209000	-14.701000	1027.666992	-12.320000	6.076875	-21.288750
41.723999	-10.431000	906.093994	-10.552500	4.755625	-23.677500
-2.074000	23.241001	967.704041	0.691250	0.756875	-10.981250
5.917000	-7.930000	1003.755005	1.343125	0.201250	-2.327500
27.023001	-14.823000	1001.010010	1.343125	0.113750	-0.831250
21.350000	-12.139000	1005.341003	0.656250	0.113750	-0.831250
21.350000	-12.139000	1003.694031	0.822500	-0.030625	-1.098125
3.660000	-1.342000	1003.694031	0.818125	-0.205625	-1.115625
-3.721000	1.769000	1001.742004	0.901250	-0.153125	-0.866250
1.159000	-7.625000	1005.096985	0.783125	0.004375	-0.739375
25.559000	-10.614000	1001.864014	0.848750	0.083125	-0.756875
26.474001	-10.492001	1004.487000	0.778750	0.026250	-0.931875
6.954000	-6.649000	1000.643982	0.752500	0.140000	-1.185625
-7.808000	-4.148000	1001.864014	0.752500	0.100625	-1.050000
-2.013000	-5.368000	1001.742004	0.713125	-0.126875	-0.844375
17.750999	0.305000	1005.096985	0.752500	0.043750	-0.796250
25.437000	-5.917000	1001.986023	0.931875	-0.048125	-0.809375
15.433001	-8.784000	1005.829041	0.892500	-0.122500	-1.032500
-3.904000	34.160000	980.819031	2.835000	-0.332500	-14.853125
-228.567001	11.163000	1007.963989	0.459375	0.179375	-2.913750
146.705002	26.108000	901.091980	-1.526875	1.885625	-9.498125
288.834991	39.771999	1080.005005	-0.831250	0.450625	0.560000
233.081009	-37.698002	904.203003	1.841875	0.542500	4.834375
-317.016998	61.549000	979.903992	2.550625	1.093750	13.510000
-245.158997	-53.008999	1052.738037	0.883750	2.681875	1.824375
374.906006	-76.311005	983.991028	-0.651875	0.284375	1.815625
295.606018	51.300999	901.031006	-1.658125	0.861875	11.821250
-299.083008	70.943001	1090.619019	-1.150625	0.201250	13.860000
-188.856003	-29.585001	854.244019	-0.026250	-0.844375	15.443750
-145.180008	-44.164001	953.369019	0.354375	0.188125	-9.380000
332.938019	142.862000	1035.597046	1.535625	-1.330000	-15.946875
176.167999	22.875000	852.963013	5.420625	-3.250625	7.161875
-223.809006	-78.873001	1130.208008	4.589375	-0.284375	9.773750
-295.545013	29.158001	1056.214966	3.031875	0.726250	-2.244375
245.951996	-33.428001	1156.376953	5.661250	-1.378125	-3.692500
137.981995	-69.174004	993.385010	2.804375	-0.927500	4.519375
-54.839001	4.880000	1012.416992	1.596875	-0.166250	-0.363125
3.172000	-6.771000	1016.809021	0.848750	-0.126875	-3.513125
13.359000	-13.481000	1000.278015	0.323750	0.240625	-5.123125
3.233000	9.089000	1001.376038	0.551250	0.297500	-5.040000
14.762000	-0.427000	1002.108032	0.822500	0.039375	-1.850625
27.938000	-7.381000	1003.816040	0.984375	-0.170625	-0.914375
24.888000	-13.481000	1004.914001	0.879375	-0.070000	-1.023750
4.514000	-13.542000	1001.132019	0.875000	-0.126875	-1.150625
-4.453000	-3.599000	999.424011	0.774375	-0.087500	-0.940625
16.775000	1.647000	1002.108032	0.826875	0.074375	-0.826875
22.387001	-6.283000	1006.072998	0.813750	-0.013125	-0.966875
19.764000	-8.784000	1002.596008	0.918750	0.000000	-1.404375
8.845000	-10.492001	997.960022	0.778750	-0.083125	-1.233750
6.466000	2.074000	1002.169006	0.616875	-0.008750	-0.927500
14.213000	10.065001	1005.463013	0.756875	-0.087500	-0.940625
17.507000	-6.954000	998.265015	0.848750	-0.065625	-0.861875
14.396000	-17.385000	998.082031	1.050000	-0.056875	-0.988750
7.015000	-7.625000	1001.070984	0.835625	-0.249375	-1.242500
3.904000	-1.403000	1005.218994	0.826875	0.013125	-1.085000
-2.745000	2.501000	998.143005	0.962500	0.175000	-2.563750
-39.589001	-25.559000	1006.804993	0.848750	-0.201250	-4.073125
-94.245003	5.002000	933.726990	0.739375	0.428750	-17.701250
286.273010	-22.509001	1009.306030	-0.743750	-0.126875	-1.185625
-65.941002	67.099998	998.387024	2.603125	-3.106250	10.075625
-79.422005	-32.146999	986.309021	1.614375	-1.211875	1.408750
-135.968994	-140.300003	810.690002	-1.505000	-0.170625	8.903125
261.263000	-47.336002	1202.614990	0.608125	1.693125	-10.447500
243.634003	126.086998	1160.890991	2.358125	0.783125	4.029375
-220.332001	238.693008	928.908020	3.158750	-1.841875	17.062500
-196.115005	-191.845001	1011.562988	8.312500	-3.815000	0.140000
140.300003	-32.390999	1195.966064	-7.113750	6.466250	-13.860000
161.100998	115.595001	1058.472046	2.953125	-0.021875	1.802500
-172.203003	40.931000	1039.196045	0.800625	-0.411250	9.065000
-72.041000	-300.730011	1053.104004	2.813125	0.428750	-8.478750
355.446991	73.321999	1159.000000	1.863750	-0.730625	-11.165000
-160.856995	98.637001	1064.693970	-0.293125	0.358750	-5.184375
-12.627000	-39.894001	991.067017	0.240625	0.271250	-3.631250
-8.967000	-13.664001	1000.217041	0.958125	-0.196875	-1.260000
217.891998	-86.315002	997.593994	0.490000	-0.450625	-5.888750
96.501999	39.650002	959.225037	0.656250	-0.774375	-3.657500
-463.112000	384.971008	924.515991	1.216250	-0.796250	11.777500
472.811005	-603.351013	924.272034	3.364375	-0.678125	1.089375
-462.807007	562.237000	1102.453003	2.856875	-0.704375	3.023125
-218.136002	-255.773010	1103.245972	4.869375	-1.837500	18.856251
1305.948975	-112.789001	964.776001	0.660625	-2.620625	18.453751
-857.476990	92.537003	1091.961060	2.563750	0.284375	25.628750
859.367981	-762.255981	1271.178955	-0.800625	1.435000	6.247500
-550.341980	503.615997	997.898987	2.436875	2.187500	-0.560000
-720.410034	224.723999	963.434021	3.115000	0.192500	9.310000
1518.594971	-508.252014	1153.083008	0.463750	0.616875	10.504375
-1185.291016	339.282013	1265.688965	15.268750	5.783750	1.500625
150.121002	-264.130005	814.716003	7.717500	1.045625	-8.128750
21.472000	143.410995	1260.015991	5.381250	-1.627500	29.093750
-666.913025	233.996002	865.895020	-1.623125	3.303125	8.106875
1101.904053	-552.476990	359.717010	-0.896875	-0.503125	-1.159375
-698.815979	366.304993	645.929016	9.576875	-4.873750	18.878124
-355.996002	221.490997	854.304993	2.108750	-0.538125	-18.532499
519.536987	-506.421997	1075.125000	0.266875	0.630000	3.810625
-572.973022	398.269012	1049.749023	-7.822500	5.853750	2.747500
-169.701996	-65.270004	969.168030	3.119375	-1.128750	-17.023125
466.894012	-77.775002	647.880981	3.570000	0.529375	0.048125
-325.496002	131.699005	1021.262024	0.822500	1.806875	-4.331250
101.443001	-359.595001	1107.333008	4.270000	-1.233750	5.101250
623.786011	-82.716003	971.303040	2.135000	-0.424375	6.921250
-777.322998	317.444000	1070.977051	0.074375	-0.490000	-5.818750
155.611008	-296.765015	1252.573975	7.109375	-3.355625	-0.328125
352.824005	-81.251999	929.945007	13.488125	-3.272500	4.773125
-157.380005	-24.948999	995.215027	5.446875	-1.365000	-0.962500
76.860001	-384.544006	994.910034	5.446875	-1.365000	-0.962500
76.860001	-384.544006	979.049988	4.672500	-0.936250	-16.113125
449.447998	27.145000	979.049988	4.256875	0.678125	-0.245000
-409.248993	409.248993	1127.463013	1.491875	1.321250	0.306250
585.173035	-733.403015	942.083984	1.973125	0.004375	-8.281875
129.380997	247.843002	775.371033	2.253125	-3.097500	20.798750
-436.942993	333.243011	1007.109985	0.931875	-0.560000	-14.621250
645.867981	-451.705017	731.450989	3.937500	-3.679375	-5.162500
-274.317017	208.925003	991.738037	4.646250	-2.944375	6.873125
-180.682007	102.113998	1120.997070	3.578750	-0.910000	-27.050625
84.302002	-44.834999	981.124023	-0.853125	0.774375	-9.388750
-427.244019	163.662994	845.277039	0.949375	-0.113750	3.976875
-211.059998	55.754002	959.103027	4.497500	-0.721875	-12.350625
325.679016	-171.348999	931.043030	-0.389375	0.223125	-1.960000
-430.843018	217.891998	1077.931030	-2.108750	1.032500	0.525000
-39.466999	-146.705002	997.228027	4.690000	-1.028125	-13.965000
284.015991	-116.998001	1068.902954	-4.830000	2.336250	-7.708750
-244.244003	149.876999	985.699036	-3.530625	2.078125	-7.297500
-76.372002	-192.393997	1165.405029	1.010625	0.411250	-30.489374
418.704010	-150.182007	1080.005005	-7.315000	3.145625	-9.664375
-431.514008	340.014008	825.147034	-4.186875	2.310000	4.440625
-226.859009	-49.043999	916.463989	5.206250	-3.115000	4.803750
187.147995	-86.681000	986.431030	-5.293750	2.266250	-21.170626
-340.136017	192.393997	1054.140991	-4.733750	0.796250	0.293125
-212.341003	102.175003	968.619019	4.130000	-1.491875	7.231875
193.309006	-263.703003	964.776001	1.452500	-0.958125	-15.141875
-431.941010	248.391998	1023.702026	-1.102500	0.459375	-5.451250
-324.398010	-73.261002	1100.440063	6.094375	-3.793125	-11.357500
560.223999	-215.574005	999.729004	-3.841250	2.870000	-26.643749
-17.446001	-19.398001	1002.901001	-2.721250	1.684375	-5.123125
400.037994	-631.044983	1141.432007	1.653750	-0.879375	13.286875
337.208008	202.520004	591.395020	7.975625	-4.480000	21.096251
-259.433014	270.169006	981.794983	5.219375	-2.222500	-2.257500
458.049011	-538.263977	1064.266968	5.455625	-4.506250	9.738750
161.283997	185.561996	1033.828003	1.605625	-2.012500	14.651875
-307.196014	318.968994	1009.244995	-1.938125	0.455000	-5.538750
541.679993	-519.109985	749.872986	4.790625	-3.027500	3.123750
-43.493000	380.152008	1299.360962	12.950000	1.732500	10.228750
-271.877014	220.820007	984.906006	1.776250	2.222500	-5.565000
368.989014	-161.833008	1055.360962	7.945000	-1.732500	4.506250
0.427000	26.108000	1056.520020	-2.056250	-1.465625	29.120001
72.041000	13.115000	1144.604004	-7.380625	3.766875	6.728750
-10.797000	-8.113000	980.941040	0.380625	1.050000	-1.903125
-2.135000	-12.688000	995.642029	1.369375	-0.026250	-1.185625
14.518001	-7.503000	1001.437012	0.756875	0.161875	-0.840000
18.239000	-3.721000	1002.840027	0.861875	-0.087500	-0.695625
15.372000	-11.895000	1001.864014	0.949375	-0.021875	-0.857500
8.723001	-3.111000	1002.840027	0.848750	-0.087500	-1.093750
12.017000	0.671000	1001.742004	0.822500	-0.061250	-0.918750
17.385000	-4.880000	1000.888000	0.923125	0.008750	-1.019375
14.884000	-12.993000	1002.596008	0.870625	-0.026250	-0.945000
8.967000	-13.786000	998.447998	0.888125	-0.153125	-0.962500
12.627000	-7.625000	999.790039	1.006250	-0.096250	-0.936250
4.697000	-7.320000	1001.497986	0.853125	-0.153125	-0.949375
13.725000	-12.566000	1003.450012	0.713125	-0.074375	-0.796250
17.385000	-7.015000	1004.548035	0.783125	-0.100625	-0.892500
3.050000	-5.612000	1001.619995	0.608125	-0.004375	-0.993125
1.586000	-5.612000	1001.742004	0.796250	-0.126875	-0.914375
18.544001	-7.198000	999.911987	0.778750	-0.004375	-0.936250
18.300001	-5.612000	1002.108032	0.901250	-0.021875	-0.901250
8.113000	-8.906000	1003.572021	0.783125	0.013125	-0.988750
0.427000	-8.174000	1003.205994	1.063125	-0.100625	-0.958125
4.087000	-9.760000	1000.156006	0.739375	-0.056875	-0.879375
18.910000	-5.551000	999.424011	0.796250	0.074375	-0.879375
27.389000	1.525000	1004.121033	0.848750	-0.140000	-0.866250
-1.586000	-8.479000	999.179993	0.651875	-0.135625	-1.023750
2.013000	-7.686000	1003.023010	0.866250	-0.083125	-0.997500
11.041000	-2.867000	1007.536987	0.778750	0.039375	-0.861875
21.289000	-3.660000	1001.070984	0.752500	-0.113750	-0.980000
14.335000	-9.333000	1002.108032	0.923125	-0.148750	-1.076250
-6.466000	-11.224000	997.716003	0.861875	-0.021875	-0.962500
-2.257000	0.122000	1001.559021	0.787500	-0.035000	-0.840000
25.254000	1.586000	1001.986023	0.713125	0.078750	-0.853125
27.205999	-6.893000	1000.765991	0.844375	-0.061250	-0.966875
8.540000	-13.481000	997.228027	0.905625	-0.192500	-1.071875
-6.344000	-8.967000	999.973022	1.006250	-0.030625	-0.875000
6.832000	-3.599000	1006.561035	0.896875	0.013125	-0.796250
22.082001	-3.782000	1006.255981	0.783125	0.087500	-0.875000
13.237000	-11.651000	1004.669983	0.993125	-0.100625	-0.892500
5.307000	-16.531000	1000.643982	0.857500	-0.236250	-1.019375
8.479000	-2.562000	1001.742004	0.813750	-0.026250	-0.923125
26.413000	0.305000	1005.829041	0.730625	0.004375	-0.879375
16.409000	-7.137000	998.387024	0.778750	-0.048125	-0.918750
3.233000	-16.775000	1002.535034	0.853125	0.000000	-1.054375
2.196000	-6.893000	1000.765991	0.756875	0.061250	-0.984375
16.226000	-0.793000	1004.609009	0.853125	0.056875	-0.866250
18.605000	-6.283000	999.424011	0.949375	0.056875	-0.826875
12.505000	-16.287001	998.570007	0.848750	-0.065625	-1.015000
-1.708000	-13.115000	1005.463013	0.743750	-0.100625	-0.997500
5.063000	-2.074000	1000.888000	0.735000	0.000000	-0.953750
21.106001	-0.244000	1002.108032	0.752500	-0.087500	-0.905625
16.104000	-10.309000	999.911987	0.958125	-0.043750	-0.892500
5.063000	-18.971001	1002.778992	1.001875	-0.109375	-0.945000
4.758000	-5.124000	1005.950989	0.958125	-0.218750	-0.892500
15.982000	-1.037000	1003.694031	0.831250	-0.070000	-1.006250
13.298000	-7.259000	1004.304016	0.975625	-0.153125	-1.010625
-0.854000	-16.042999	997.898987	1.019375	-0.188125	-0.883750
14.884000	-11.651000	1003.145020	0.875000	-0.074375	-0.844375
22.387001	-3.965000	1006.804993	0.796250	0.021875	-0.958125
15.067000	-0.549000	1002.108032	0.756875	-0.030625	-1.010625
-3.172000	-10.187000	1000.765991	0.840000	0.030625	-0.844375
1.647000	-9.760000	1002.351990	0.892500	0.026250	-0.787500
24.339001	-5.917000	1000.278015	0.875000	-0.087500	-0.700000
25.742001	-9.638000	1007.171021	0.875000	-0.087500	-0.958125
4.331000	-8.174000	1005.645996	0.713125	-0.192500	-0.958125
4.331000	-8.174000	1005.645996	0.735000	-0.118125	-1.028125
1.342000	-4.575000	1005.645996	0.927500	-0.131250	-1.041250
8.845000	-0.549000	1003.328003	0.857500	0.039375	-0.910000
24.400000	-7.015000	1002.962036	0.835625	0.039375	-0.870625
21.472000	-5.734000	1001.132019	0.809375	0.065625	-0.958125
7.198000	-10.370000	1004.121033	0.914375	-0.061250	-1.115625
3.294000	-5.429000	1002.718018	0.800625	-0.131250	-1.067500
4.270000	-1.769000	1003.694031	0.673750	0.039375	-0.853125
18.300001	-6.588000	1002.108032	0.691250	0.061250	-0.870625
18.910000	-12.993000	1001.742004	0.752500	-0.039375	-0.993125
9.699000	-11.834001	1001.254028	0.949375	-0.175000	-1.006250
6.222000	-2.745000	1004.609009	0.936250	-0.030625	-0.953750
4.758000	-0.061000	1002.108032	0.875000	0.035000	-0.905625
9.821000	-7.137000	998.325989	0.774375	0.087500	-0.831250
21.837999	-11.834001	990.457031	0.774375	0.140000	-0.805000
15.555000	-5.185000	1002.962036	0.931875	-0.118125	-0.927500
6.527000	1.525000	1000.765991	0.756875	-0.004375	-0.809375
6.954000	-5.429000	1005.096985	0.857500	0.100625	-0.861875
10.919000	-10.675000	1002.718018	0.861875	-0.131250	-0.879375
13.298000	-8.601000	1005.036011	0.752500	0.048125	-0.826875
8.662000	-3.843000	1004.669983	0.905625	0.035000	-0.857500
6.100000	-2.806000	1003.083984	0.813750	0.026250	-1.001875
6.100000	-5.978000	1003.937988	0.721875	-0.008750	-0.888125
15.555000	-6.710000	1003.572021	0.861875	-0.118125	-0.931875
20.434999	-4.392000	1003.816040	0.831250	-0.087500	-0.923125
13.481000	-8.052000	998.936035	0.813750	-0.026250	-0.949375
2.379000	-8.296000	1007.293030	0.761250	-0.048125	-1.001875
7.503000	-0.061000	1005.890015	0.787500	-0.087500	-0.984375
17.446001	-9.943000	999.973022	0.669375	0.100625	-0.975625
14.762000	-9.760000	1005.218994	0.573125	-0.017500	-0.940625
13.542000	-9.760000	999.484985	0.590625	0.052500	-0.993125
16.653000	-5.063000	1001.376038	0.936250	-0.096250	-1.028125
11.529000	-5.612000	1002.718018	0.875000	0.004375	-0.910000
12.932000	-5.490000	1000.888000	0.809375	-0.091875	-0.822500
13.298000	-10.614000	1002.596008	0.896875	-0.096250	-0.848750
13.786000	-12.322001	1002.230042	0.844375	-0.043750	-0.945000
13.542000	-3.965000	1002.473999	0.861875	0.030625	-0.848750
9.638000	-6.222000	1000.522034	0.993125	-0.170625	-1.058750
5.856000	-7.808000	1004.242981	0.813750	-0.118125	-0.875000
10.065001	-6.710000	1003.450012	0.918750	-0.183750	-0.910000
9.882000	-8.174000	1001.010010	0.875000	-0.048125	-0.971250
10.858000	-3.843000	1005.707031	0.743750	-0.105000	-0.971250
9.272000	-3.538000	1004.426025	0.726250	-0.078750	-0.966875
6.954000	-7.320000	1004.304016	0.910000	-0.091875	-0.949375
9.516000	-3.599000	999.424011	0.770000	0.013125	-0.984375
9.760000	-6.710000	1003.023010	0.796250	-0.065625	-0.936250
12.627000	-8.906000	1005.341003	0.888125	-0.091875	-0.940625
10.370000	-2.501000	1001.497986	0.853125	-0.148750	-0.988750
10.370000	-5.002000	1001.864014	0.800625	0.052500	-0.945000
6.100000	-9.394000	1000.033997	0.813750	0.035000	-0.936250
15.555000	-9.394000	1003.755005	0.953750	-0.126875	-0.896875
16.226000	-7.808000	1001.742004	0.787500	-0.126875	-1.006250
6.771000	-3.965000	1002.840027	0.735000	0.004375	-0.962500
10.065001	-2.684000	1002.230042	0.761250	-0.017500	-0.888125
10.980000	-7.564000	1000.400024	0.743750	-0.061250	-0.770000
11.224000	-7.076000	1002.473999	0.770000	-0.004375	-0.953750
14.701000	-6.222000	1000.400024	0.840000	0.017500	-0.914375
12.322001	0.061000	1002.718018	0.682500	0.008750	-0.879375
9.760000	-7.381000	1004.548035	0.875000	-0.175000	-0.896875
8.540000	-7.686000	1002.840027	0.805000	-0.021875	-0.787500
15.067000	-7.198000	1001.010010	0.704375	-0.048125	-0.918750
6.649000	-9.760000	1010.465027	0.875000	-0.306250	-0.940625
6.954000	-7.808000	997.533020	0.796250	-0.065625	-0.993125
12.627000	-7.564000	1002.535034	0.774375	-0.035000	-0.980000
14.274000	-9.516000	1001.742004	0.783125	0.048125	-0.888125
15.372000	-9.150001	1001.986023	0.765625	0.035000	-0.966875
13.664001	-8.784000	1002.108032	0.905625	-0.105000	-0.931875
11.224000	-5.917000	1004.853027	0.813750	-0.013125	-0.923125
10.614000	-6.954000	1004.426025	0.826875	-0.013125	-0.818125
7.564000	-4.880000	1001.010010	0.770000	-0.096250	-0.818125
12.749001	-4.880000	1003.083984	0.866250	-0.087500	-0.866250
11.102000	-5.856000	1006.195007	0.857500	-0.004375	-0.918750
11.834001	-4.514000	1003.816040	0.783125	0.043750	-0.997500
10.248000	-6.222000	1002.108032	0.774375	0.000000	-0.910000
14.701000	-1.525000	1005.218994	0.682500	0.061250	-0.923125
11.468000	-5.368000	998.997009	0.656250	0.021875	-0.953750
13.176001	-10.797000	1000.033997	0.761250	-0.021875	-0.853125
11.712000	-4.819000	1005.707031	0.958125	-0.048125	-1.015000
10.858000	-3.660000	1003.937988	0.826875	-0.131250	-0.905625
9.028000	-6.588000	1000.765991	0.756875	-0.135625	-0.931875
12.749001	-11.468000	1002.962036	0.748125	0.030625	-0.945000
15.433001	-5.429000	1002.962036	0.936250	-0.074375	-0.879375
-9.699000	5.734000	1000.888000	0.918750	-0.048125	-0.761250
20.740000	-10.492001	998.936035	0.936250	0.013125	-0.853125
26.901001	-16.775000	999.668030	0.853125	-0.048125	-0.971250
14.335000	-8.723001	1003.877014	0.805000	-0.157500	-1.076250
3.233000	3.172000	1004.426025	0.739375	-0.131250	-1.032500
-4.209000	-3.721000	1000.643982	0.910000	-0.083125	-0.945000
10.370000	-8.784000	1001.864014	1.023750	-0.109375	-0.647500
28.059999	-4.941000	1002.351990	0.774375	-0.021875	-0.761250
22.204000	-5.246000	1000.765991	0.765625	0.026250	-1.137500
-6.710000	-0.671000	1001.010010	0.608125	0.070000	-1.023750
-2.867000	-6.649000	996.984009	0.726250	0.035000	-0.656250
23.424000	-9.638000	1007.231995	0.748125	0.013125	-0.625625
35.624001	-10.614000	998.997009	0.704375	0.008750	-0.796250
24.217001	-7.808000	1002.778992	0.713125	-0.205625	-1.137500
-5.490000	-8.540000	1002.596008	0.717500	-0.210000	-1.260000
-17.507000	-1.281000	1002.351990	0.717500	-0.056875	-0.923125
9.028000	-1.220000	1006.195007	0.704375	-0.056875	-0.923125
9.028000	-1.220000	1002.718018	0.691250	0.091875	-0.555625
39.771999	-12.749001	1002.718018	0.805000	0.030625	-0.656250
29.707001	-10.980000	1001.986023	0.844375	-0.087500	-0.962500
1.281000	-5.551000	999.790039	0.905625	-0.157500	-1.146250
-8.601000	3.355000	999.911987	0.870625	-0.183750	-0.971250
6.344000	1.464000	1003.389038	0.726250	0.078750	-0.713125
27.389000	-10.797000	1001.619995	0.805000	0.061250	-0.665000
26.352001	-18.605000	997.960022	0.818125	-0.043750	-0.949375
3.477000	-6.588000	1000.156006	0.949375	-0.113750	-1.085000
-4.941000	-0.061000	1004.853027	0.918750	-0.148750	-0.940625
6.344000	-3.660000	999.790039	0.866250	-0.065625	-0.826875
17.568001	-10.675000	1002.230042	0.805000	0.021875	-0.787500
23.851000	-16.165001	1003.937988	0.879375	-0.083125	-0.835625
14.213000	-3.294000	1000.278015	0.866250	-0.070000	-0.971250
2.013000	2.013000	1001.864014	0.783125	-0.096250	-1.058750
-0.488000	0.244000	1002.840027	0.809375	-0.021875	-0.853125
11.102000	-6.283000	1002.230042	1.028125	-0.100625	-0.857500
23.058001	-11.773000	1004.242981	0.861875	-0.030625	-1.032500
16.775000	-12.566000	1008.635010	0.726250	-0.043750	-1.111250
5.307000	-9.882000	999.606995	0.713125	-0.061250	-0.953750
3.538000	-6.405000	1004.487000	0.726250	0.013125	-0.910000
11.529000	-7.564000	1001.864014	0.778750	0.096250	-0.923125
14.579000	-6.954000	1003.572021	0.752500	0.021875	-0.861875
13.664001	-6.588000	1003.083984	0.778750	-0.013125	-0.866250
3.721000	-7.686000	998.692017	0.717500	0.008750	-0.883750
0.000000	-8.540000	1005.341003	0.678125	0.008750	-0.800625
10.553000	-5.063000	1003.328003	0.691250	-0.013125	-0.774375
17.141001	-8.174000	1002.351990	0.682500	0.004375	-0.905625
19.947001	-10.614000	1001.742004	0.791875	-0.109375	-0.980000
9.577000	-5.185000	999.668030	0.831250	-0.100625	-0.910000
9.516000	-0.915000	998.570007	0.875000	-0.052500	-0.840000
10.614000	-7.137000	1003.145020	0.984375	-0.218750	-0.962500
11.712000	-7.442000	1007.415039	0.743750	-0.008750	-0.896875
14.823000	-9.394000	1000.583008	0.857500	-0.052500	-0.993125
11.590000	-4.209000	997.716003	0.796250	0.135625	-0.910000
12.444000	-4.758000	1002.291016	0.813750	-0.039375	-0.936250
12.566000	-4.148000	1001.376038	0.813750	-0.030625	-0.866250
9.638000	-7.808000	1004.182007	0.813750	-0.083125	-0.901250
12.749001	-2.379000	1003.816040	0.735000	0.000000	-0.888125
13.786000	-7.686000	1000.765991	0.879375	-0.008750	-0.993125
8.479000	-8.052000	1004.487000	0.879375	0.013125	-1.028125
6.832000	-4.941000	1000.400024	0.765625	0.017500	-0.927500
16.287001	-8.296000	1004.364990	0.673750	-0.013125	-0.980000
10.065001	-9.150001	1001.619995	0.883750	-0.144375	-1.006250
14.091001	-10.370000	998.814026	0.861875	-0.096250	-0.914375
13.786000	-8.052000	1000.522034	0.787500	0.021875	-0.883750
9.760000	-6.710000	1000.643982	0.831250	-0.070000	-0.826875
12.871000	-8.174000	1001.497986	1.015000	-0.140000	-0.879375
11.468000	-7.930000	1001.986023	0.866250	-0.105000	-0.870625
11.102000	-7.320000	999.546021	0.892500	-0.183750	-0.809375
13.603000	-8.174000	1000.522034	0.905625	-0.153125	-0.875000
11.956000	-3.843000	1006.927002	0.844375	0.017500	-0.966875
12.932000	-6.588000	1001.864014	0.826875	-0.078750	-1.041250
10.980000	-8.784000	1002.718018	0.809375	-0.126875	-0.971250
9.882000	-5.673000	1004.669983	0.857500	-0.157500	-1.023750
7.442000	-4.758000	998.020996	0.809375	-0.017500	-0.984375
7.076000	-7.076000	1004.121033	0.700000	0.126875	-0.936250
12.505000	-5.490000	1002.718018	0.678125	-0.118125	-0.958125
6.039000	-7.320000	998.936035	0.713125	-0.004375	-0.892500
10.065001	-7.808000	1003.632996	0.853125	0.061250	-0.918750
16.775000	-8.540000	998.447998	0.966875	-0.153125	-0.966875
10.797000	-7.686000	1005.950989	0.931875	-0.052500	-0.971250
9.760000	-3.965000	997.777039	0.730625	-0.056875	-0.857500
11.102000	-5.368000	1000.583008	0.791875	-0.056875	-0.958125
16.531000	-8.784000	1001.254028	0.927500	-0.118125	-0.896875
13.908000	-2.013000	1001.619995	0.800625	0.000000	-0.861875
11.712000	-6.588000	1002.596008	0.853125	0.048125	-0.910000
13.664001	-5.612000	1002.230042	0.752500	-0.008750	-0.997500
13.176001	-2.501000	1001.497986	0.726250	0.035000	-0.910000
8.906000	-5.002000	1004.364990	0.949375	0.052500	-0.870625
12.627000	-7.442000	998.997009	0.931875	-0.122500	-0.848750
9.760000	-6.710000	1001.803040	0.988750	-0.070000	-1.036875
10.370000	-8.784000	1001.742004	0.940625	-0.175000	-1.015000
13.603000	-3.355000	1001.376038	0.883750	-0.087500	-0.861875
17.629000	-8.540000	998.204041	0.783125	-0.043750	-0.840000
9.455000	-8.174000	1000.338989	0.787500	-0.039375	-0.901250
7.198000	-2.989000	1006.317017	0.905625	-0.148750	-0.980000
13.847000	-5.734000	1002.230042	0.831250	-0.065625	-0.927500
5.795000	-6.344000	1002.718018	0.778750	0.008750	-0.905625
10.919000	-9.028000	998.204041	0.599375	0.030625	-0.857500
12.322001	-7.686000	1000.827026	0.756875	-0.074375	-0.966875
12.444000	-7.442000	1001.010010	0.835625	-0.078750	-0.949375
10.858000	-9.516000	1006.804993	0.774375	0.061250	-0.927500
14.091001	-6.954000	1005.768005	0.831250	0.000000	-1.001875
11.834001	-9.394000	1002.351990	0.805000	0.004375	-0.875000
13.176001	-8.418000	1001.497986	0.743750	0.030625	-0.813750
9.150001	-8.296000	1000.156006	0.787500	-0.056875	-0.914375
9.028000	-6.710000	1003.632996	1.045625	-0.144375	-0.914375
9.516000	-10.492001	1000.888000	0.840000	0.039375	-0.888125
11.346000	-7.137000	1003.755005	0.892500	-0.118125	-0.984375
8.784000	-6.588000	1002.351990	0.896875	-0.083125	-1.063125
13.847000	-9.028000	1000.033997	0.888125	0.004375	-1.015000
9.394000	-5.673000	999.668030	0.835625	-0.052500	-1.019375
12.505000	-4.880000	1002.230042	0.656250	-0.013125	-0.940625
7.564000	-6.344000	1004.364990	0.717500	0.039375	-0.966875
12.139000	-7.442000	1001.376038	0.857500	0.008750	-0.984375
10.980000	-4.880000	1001.254028	0.875000	-0.091875	-1.015000
15.555000	-8.052000	1001.132019	0.875000	-0.091875	-0.949375
15.555000	-8.662000	1003.755005	0.748125	-0.048125	-0.949375
9.211000	-8.662000	1003.755005	0.778750	-0.100625	-0.879375
14.335000	-11.468000	1002.351990	0.914375	-0.135625	-0.936250
15.128000	-4.575000	1006.804993	0.813750	-0.021875	-1.045625
10.004000	-2.684000	1000.705017	0.643125	0.004375	-0.975625
12.871000	-8.845000	999.302002	0.866250	-0.052500	-0.975625
9.760000	-6.161000	1005.218994	0.914375	-0.100625	-0.958125
10.980000	-8.662000	1001.864014	0.756875	-0.052500	-0.848750
13.054000	-9.028000	1003.205994	0.721875	0.013125	-0.962500
13.542000	-7.320000	1004.426025	0.805000	0.013125	-0.958125
9.760000	-7.442000	1001.497986	0.953750	-0.017500	-0.962500
12.444000	-5.002000	1002.596008	0.826875	-0.021875	-0.927500
10.370000	-8.906000	1004.182007	0.910000	-0.026250	-1.050000
11.346000	-5.917000	1001.986023	0.918750	-0.091875	-0.923125
13.176001	-5.978000	1004.975037	0.931875	-0.118125	-0.936250
9.272000	-8.174000	999.790039	0.831250	-0.100625	-0.980000
10.736000	-4.941000	1001.132019	0.892500	-0.056875	-0.914375
11.712000	-5.490000	1003.083984	0.910000	-0.013125	-0.892500
10.004000	-7.808000	1001.619995	0.927500	0.026250	-0.923125
14.579000	-12.200000	1000.643982	0.888125	-0.087500	-0.953750
8.967000	-6.893000	1003.205994	0.949375	-0.091875	-0.945000
11.773000	-5.490000	1005.463013	0.962500	-0.113750	-0.971250
13.176001	1.281000	1006.012024	0.940625	-0.083125	-0.875000
12.932000	-3.172000	1003.937988	0.770000	-0.087500	-0.879375
14.152000	-4.270000	1003.937988	0.708750	-0.078750	-0.870625
6.161000	-4.026000	1001.254028	0.700000	-0.043750	-0.896875
9.699000	-4.880000	1003.999023	0.875000	-0.008750	-1.023750
5.124000	-4.148000	998.814026	0.861875	0.074375	-0.923125
15.616000	-2.440000	1007.049011	0.905625	-0.056875	-0.879375
7.869000	-5.246000	1001.742004	1.041250	-0.113750	-0.774375
10.919000	-5.856000	1002.962036	0.861875	-0.043750	-0.918750
10.126000	-6.832000	1000.033997	0.993125	-0.043750	-0.936250
10.248000	-5.002000	1001.254028	0.892500	0.021875	-1.041250
10.370000	-5.612000	1001.864014	0.910000	-0.070000	-1.050000
15.067000	-6.222000	1000.400024	0.748125	0.004375	-0.892500
9.333000	-2.745000	1001.376038	0.721875	-0.017500	-0.914375
9.150001	-1.342000	1004.242981	0.848750	-0.013125	-0.888125
10.736000	-6.832000	1002.230042	0.958125	0.008750	-0.870625
13.298000	-9.394000	1001.619995	0.848750	-0.048125	-0.931875
12.200000	-4.209000	1000.156006	0.791875	-0.065625	-0.988750
12.566000	-11.041000	1003.023010	0.840000	-0.021875	-1.076250
7.625000	-3.477000	1001.254028	0.875000	0.004375	-0.962500
7.564000	-8.540000	1001.010010	0.905625	-0.100625	-0.896875
11.285000	-6.100000	1000.400024	0.800625	-0.131250	-0.853125
11.224000	-5.246000	1004.364990	0.835625	-0.048125	-0.997500
11.956000	-6.954000	997.533020	0.840000	-0.131250	-0.931875
10.858000	-6.588000	1002.535034	0.809375	-0.008750	-0.966875
12.322001	-8.906000	1001.619995	0.835625	0.013125	-0.940625
11.102000	-11.712000	1003.937988	0.861875	0.074375	-0.966875
12.810000	-3.477000	1007.293030	0.949375	0.021875	-0.923125
12.444000	-7.808000	1003.694031	0.853125	0.021875	-0.945000
11.346000	-9.760000	1006.804993	0.826875	-0.021875	-0.931875
9.272000	-5.185000	1002.840027	0.875000	-0.148750	-0.984375
14.945000	-6.588000	998.325989	0.796250	0.035000	-0.975625
14.518001	-12.017000	1003.632996	0.896875	-0.113750	-0.966875
9.211000	-12.078000	1004.059998	0.791875	-0.061250	-0.914375
7.686000	-4.575000	1002.108032	0.840000	0.118125	-0.853125
9.394000	-2.806000	1002.596008	0.735000	0.043750	-0.813750
6.588000	-1.830000	1006.682983	0.857500	-0.056875	-0.971250
13.481000	-6.344000	1003.816040	0.813750	-0.070000	-0.888125
12.200000	-5.368000	1001.864014	0.796250	-0.083125	-0.949375
11.468000	-2.928000	1004.182007	0.791875	-0.061250	-0.910000
16.042999	-6.954000	1000.522034	0.980000	-0.061250	-1.015000
13.054000	-4.453000	1002.351990	0.936250	-0.061250	-0.949375
12.322001	-6.710000	1000.522034	0.813750	0.017500	-0.896875
7.076000	-9.760000	1001.010010	0.875000	-0.087500	-0.840000
13.725000	-6.771000	1004.731018	0.853125	0.008750	-0.940625
9.882000	-9.150001	999.424011	0.774375	-0.096250	-0.940625
13.969000	-3.843000	1002.901001	0.883750	-0.113750	-1.045625
11.590000	-5.734000	1002.718018	0.730625	0.078750	-1.036875
18.605000	-7.564000	988.749023	5.306875	-5.245625	-4.458125
11.895000	-5.856000	997.777039	5.306875	-5.245625	0.000000
8.784000	-3.599000	1004.853027	0.538125	-0.026250	-0.958125
8.662000	-1.952000	1009.611023	0.914375	0.000000	-0.735000
12.017000	-13.237000	992.348022	0.695625	0.087500	-1.063125
462.989990	15.616000	996.434998	0.376250	0.275625	0.975625
245.464005	98.027000	855.463989	-1.789375	0.358750	17.430000
-199.653000	-49.348999	1213.777954	-0.638750	1.435000	24.333750
-258.213013	-66.856003	1072.380005	-2.511250	2.419375	7.437500
-371.368011	-43.859001	1017.053040	1.242500	0.551250	-13.063750
-19.398001	-92.720001	1410.869019	-3.040625	3.338125	-48.925625
545.035034	132.309006	1023.702026	-6.028750	1.553125	-36.220627
574.132019	-78.507004	891.027039	-4.466875	1.413125	14.621250
336.720001	112.179001	-404.490997	-0.363125	-1.343125	53.689999
-579.134033	-26.718000	1276.302979	2.843750	-3.193750	32.983124
-414.983002	35.990002	1014.429993	8.089375	-4.628750	-10.443125
-247.660004	-209.473999	1157.597046	-3.959375	2.113125	-37.222500
467.138000	120.719002	850.645020	-5.801250	0.551250	-49.301876
502.701019	35.441002	975.877991	-1.124375	-0.140000	-0.691250
366.915009	24.461000	715.225037	0.993125	0.188125	43.693127
-464.515015	11.102000	1130.940063	0.805000	1.837500	50.229374
-230.458008	-28.609001	995.947021	2.786875	-0.070000	9.056250
-496.540009	-239.913010	937.997009	-5.993750	4.585000	-31.010000
316.651001	103.211998	872.910034	-8.076250	5.096875	-54.241249
344.649994	66.184998	943.487000	-3.460625	1.715000	-10.731875
505.873016	40.077000	1100.073975	-3.460625	-0.280000	36.579376
-353.617004	70.515999	941.473999	4.668125	-0.280000	36.579376
-353.617004	70.515999	941.473999	4.051250	-0.376250	56.595001
-512.278015	-228.994003	1024.983032	0.472500	0.371875	18.353125
-413.274994	-199.958008	1191.940063	-6.903750	2.489375	-25.917500
273.341003	53.131001	1029.375000	3.049375	0.805000	-59.364376
699.121033	170.861008	850.767029	0.958125	-0.223125	-18.567499
345.565002	66.429001	805.932007	-1.054375	1.942500	23.992500
-215.330002	73.993004	831.734985	0.875000	2.948750	44.288124
-404.795990	-104.126999	953.674011	1.680000	-1.032500	16.563749
-69.235001	-72.834000	1017.723999	2.870000	-2.515625	-0.472500
-33.855000	-50.081001	733.463989	-0.144375	-0.039375	-8.745625
128.649002	59.535999	1086.287964	-0.603750	1.505000	-17.316250
54.595001	87.718002	1009.184021	0.678125	0.315000	-9.559375
-3.111000	-8.784000	997.655029	0.708750	-0.056875	-0.538125
-0.671000	-7.564000	1001.070984	0.756875	0.039375	0.490000
14.518001	-8.052000	1002.962036	0.726250	-0.100625	-0.542500
15.738000	-4.697000	1003.450012	0.870625	-0.170625	-0.857500
12.688000	-5.734000	1004.059998	0.826875	-0.061250	-0.888125
11.834001	-7.686000	1003.694031	0.665000	-0.013125	-0.940625
11.102000	-5.856000	1004.791992	0.805000	0.078750	-0.958125
11.102000	-2.989000	1001.497986	0.778750	0.035000	-0.905625
14.701000	-5.368000	999.790039	0.905625	-0.074375	-0.848750
10.126000	-8.052000	1004.364990	0.686875	0.035000	-0.914375
5.002000	-3.721000	1000.033997	0.910000	-0.122500	-0.892500
13.237000	-0.671000	1007.781006	0.665000	-0.131250	-0.953750
15.250000	-4.514000	1002.046997	0.826875	-0.026250	-1.006250
9.760000	-3.172000	1001.497986	0.857500	-0.026250	-0.914375
9.150001	-7.198000	1000.765991	1.106875	-0.061250	-0.848750
14.091001	-4.453000	1003.267029	0.914375	0.070000	-1.010625
7.137000	-8.540000	1002.351990	0.647500	-0.122500	-1.067500
-19.093000	-3.599000	989.664001	0.643125	-0.096250	5.985000
57.340000	16.775000	1005.645996	0.660625	0.275625	7.498750
13.420000	-9.455000	1006.134033	0.446250	0.140000	1.085000
12.444000	-7.320000	1000.338989	0.713125	-0.087500	-0.923125
8.418000	-11.590000	1002.535034	0.931875	-0.065625	-0.953750
26.169001	-2.501000	998.204041	0.809375	-0.389375	-0.984375
51.300999	-3.904000	1024.312012	0.647500	-0.507500	2.458750
11.529000	-2.928000	1018.822021	0.363125	-0.507500	-0.179375
18.849001	-4.270000	998.692017	0.533750	-0.175000	-1.295000
-3.355000	-13.481000	1001.924988	0.656250	0.026250	-0.061250
-8.540000	-10.187000	1003.205994	0.774375	0.000000	-0.065625
-221.857010	-57.096001	984.418030	0.538125	0.551250	-3.001250
108.640999	-100.345001	1208.714966	1.093750	-0.354375	-23.498125
405.040009	247.721008	961.848022	0.341250	0.752500	-8.925000
338.428009	151.279999	1187.730957	0.100625	-0.962500	18.913124
-134.871002	17.750999	1271.178955	1.776250	0.227500	32.716251
-464.454010	-170.800003	894.869995	0.196875	0.879375	15.916250
-431.391998	-101.077003	984.174011	-2.870000	0.980000	-9.961875
86.681000	-99.307999	1417.274048	-0.586250	2.051875	-38.898125
644.892029	219.417007	988.627014	3.185000	-0.450625	-12.656875
293.837006	68.259003	985.150024	2.835000	-1.916250	21.809376
-162.809006	54.778000	907.436035	-0.503125	-1.124375	20.663124
-320.372009	-100.040001	1080.432007	1.181250	-0.380625	-1.391250
-412.604004	-195.078003	810.140991	0.424375	-1.470000	-25.843124
98.697998	4.636000	1237.019043	-1.102500	0.914375	-64.067497
542.411987	148.291000	1016.869995	8.417500	-2.856875	-40.796875
298.838989	156.464996	1199.504028	6.523125	-1.850625	11.165000
-271.266998	-31.110001	760.182007	2.572500	-1.373750	21.770000
-245.830002	-118.523003	1032.425049	0.350000	-0.612500	3.171875
-164.272995	-101.138000	1070.244995	-0.122500	0.621250	4.318125
204.837997	1.159000	1098.365967	2.581250	1.645000	5.180000
493.063019	19.153999	1090.130981	1.662500	2.139375	35.511875
-9.211000	50.507999	807.395996	3.898125	0.748125	59.167500
-489.585999	-97.783005	967.398987	2.664375	-0.271250	25.786249
-304.877991	-7.198000	893.833008	3.451875	-2.406250	-0.665000
-16.165001	-153.048996	1260.992065	5.481875	-2.043125	-28.638750
537.044006	200.445999	1004.487000	5.893125	-2.905000	-11.396875
159.270996	34.831001	1018.455994	3.058125	0.306250	11.130000
-127.673004	-25.010000	960.322998	1.601250	-0.503125	3.858750
-106.201004	-32.513000	1000.705017	3.421250	-1.225000	3.364375
3.172000	-20.496000	993.507019	2.139375	-0.218750	0.463750
19.153999	-4.880000	999.729004	1.207500	0.000000	-1.115625
10.675000	-9.028000	1006.561035	0.875000	0.083125	-1.150625
11.468000	-6.832000	1003.205994	0.756875	0.096250	-1.365000
10.370000	-4.880000	1005.463013	0.778750	0.048125	-0.940625
8.540000	-7.564000	1005.768005	0.958125	-0.004375	-0.892500
15.677000	-2.745000	1000.400024	0.770000	-0.026250	-0.927500
17.568001	-8.357000	1002.230042	0.905625	0.087500	-0.910000
13.298000	-6.588000	1002.962036	0.953750	-0.078750	-1.015000
12.932000	-4.880000	999.057983	0.892500	-0.183750	-1.010625
15.372000	-6.466000	998.936035	0.870625	0.000000	-0.927500
10.126000	-6.832000	1004.242981	0.966875	-0.021875	-0.844375
11.834001	-10.004000	1006.377991	1.076250	-0.083125	-0.866250
18.239000	-13.786000	1006.012024	1.071875	-0.056875	-1.028125
14.030000	-5.795000	1001.010010	0.660625	0.030625	-0.984375
7.991000	-0.061000	1001.619995	0.726250	-0.013125	-0.962500
11.529000	-5.917000	1001.864014	0.625625	-0.074375	-0.931875
14.335000	-7.076000	1001.742004	0.870625	-0.087500	-0.962500
11.590000	-1.769000	1002.351990	0.870625	-0.087500	-0.875000
11.590000	-7.015000	1002.351990	0.770000	-0.048125	-0.875000
6.954000	-7.015000	1002.351990	0.778750	-0.126875	-0.870625
16.531000	-10.370000	998.936035	0.975625	0.048125	-0.835625
9.699000	-9.394000	1003.632996	0.940625	-0.122500	-0.686875
0.183000	-5.917000	1006.012024	0.831250	-0.052500	-1.238125
-200.690002	-5.734000	1019.432007	0.756875	0.214375	-3.220000
-95.038002	13.481000	993.018982	-0.424375	-0.004375	-17.298750
190.990997	45.262001	988.932007	-0.297500	0.021875	-13.011250
327.813995	40.992001	1006.255981	1.010625	-0.529375	11.388125
213.072998	10.126000	792.939026	4.515000	-2.528750	38.220001
-210.389008	94.000999	1148.385986	3.539375	-1.540000	53.948124
-174.033005	-122.610001	961.116028	-0.647500	-0.507500	16.038750
-231.617004	-125.050003	1084.458008	0.949375	1.456875	-22.876875
275.963989	74.907997	981.916992	-0.669375	0.288750	-38.036251
202.947006	20.069000	963.799988	-1.505000	-0.503125	-3.749375
195.626999	9.211000	1033.279053	-1.299375	0.000000	27.308750
-386.069000	-21.594000	1171.566040	1.032500	0.131250	14.468125
-297.436005	35.501999	1059.936035	0.380625	-1.299375	-15.159375
57.827999	-146.705002	1236.286987	-0.538125	0.218750	-42.174999
471.895996	106.689003	1050.176025	0.726250	0.026250	-13.361250
244.182999	-20.252001	1009.489014	0.883750	-0.140000	16.725624
-187.757996	67.039001	1273.070068	1.750000	1.841875	24.443125
-123.830002	-21.899000	1033.401001	0.651875	0.778750	0.796250
-178.791000	-111.325005	1149.789062	3.285625	-0.087500	-26.070625
253.150009	19.580999	904.142029	3.084375	-1.898750	-36.535625
210.999008	5.612000	1022.054993	1.054375	-0.183750	-3.346875
165.309998	83.326004	1176.812012	2.620625	0.800625	31.311874
-350.627991	-33.123001	979.355042	3.399375	0.546875	23.445625
-216.061996	6.161000	1045.967041	1.658125	0.091875	-10.771250
-195.261002	-151.402008	991.554993	0.586250	1.881250	-35.026249
317.688019	62.952000	905.057007	1.925000	2.016875	-29.513750
161.528000	-64.171997	1024.067993	1.715000	0.809375	3.215625
71.187004	87.840004	1081.530029	-0.787500	-0.323750	22.277500
-364.657990	-41.480000	1161.073975	-1.281875	-0.520625	14.551250
-303.291992	21.837999	1000.522034	0.870625	0.131250	-12.355000
51.850002	-83.021004	913.963013	-0.433125	0.231875	-30.016874
268.644012	29.585001	917.501038	-1.509375	0.074375	-17.084375
329.156006	12.566000	1006.377991	-0.358750	0.157500	7.459375
-12.566000	130.235001	841.372986	-1.133125	-0.131250	28.826876
-336.231995	-163.358002	1034.499023	3.180625	-0.328125	13.181875
-264.923004	-26.230000	952.088013	-0.271250	0.783125	-12.061875
135.054001	15.006001	936.106018	-0.048125	-0.122500	-16.808750
20.191000	6.283000	1033.523071	0.367500	0.201250	-3.154375
71.553001	-7.442000	1004.426025	0.354375	0.323750	4.939375
-68.076004	0.549000	993.994995	0.323750	0.161875	1.793750
14.213000	-2.074000	1001.559021	0.857500	-0.210000	-0.581875
48.494999	1.403000	1003.694031	0.853125	0.004375	-1.566250
14.762000	-4.087000	995.458984	0.726250	0.052500	-1.194375
6.893000	-8.540000	1006.377991	0.761250	-0.061250	-0.818125
6.222000	-5.185000	1002.230042	0.835625	-0.188125	-0.861875
10.797000	-8.296000	1002.108032	0.730625	-0.056875	-0.945000
15.311000	-1.769000	998.204041	0.748125	-0.039375	-0.883750
15.372000	-10.309000	1004.609009	0.599375	-0.113750	-0.748125
5.429000	-3.477000	997.655029	0.783125	0.021875	-0.848750
13.481000	-2.928000	994.544006	0.752500	0.083125	-1.124375
20.801001	-0.732000	1001.924988	0.739375	0.135625	-1.303750
12.383000	-10.919000	1000.033997	0.988750	-0.310625	-0.656250
-43.980999	-7.381000	1006.927002	1.093750	-0.105000	-1.325625
-0.366000	-9.272000	994.726990	0.905625	-0.118125	-2.375625
-45.139999	-7.808000	1007.231995	1.347500	-0.214375	-11.996250
63.440002	3.172000	1002.169006	0.853125	-0.336875	-3.176250
358.679993	82.594002	932.872986	-0.529375	0.809375	40.998123
-352.092010	-137.981995	1204.445068	1.006250	0.157500	22.911875
-36.660999	22.875000	1009.611023	0.026250	0.087500	-5.608750
27.572001	-15.189000	1023.092041	0.153125	0.494375	-11.571875
39.771999	13.542000	993.080017	0.595000	0.218750	1.544375
15.433001	8.113000	999.729004	0.700000	0.350000	7.848750
-61.243999	111.081001	995.276001	1.308125	-0.196875	-1.325625
91.500000	-140.787994	969.838989	-2.047500	1.246875	1.736875
46.970001	-35.868000	1010.708984	-0.717500	0.621250	1.032500
-8.723001	53.680000	1007.354004	-0.625625	0.275625	-2.848125
2.928000	20.740000	1012.661011	-0.376250	0.266875	3.395000
18.788000	-5.673000	999.302002	1.080625	-0.262500	1.636250
-49.227001	72.468002	1011.257996	1.487500	-0.175000	-1.697500
22.509001	-0.915000	1000.949036	1.159375	0.096250	-2.051875
20.740000	-8.601000	1003.510986	1.093750	-0.008750	-0.905625
5.612000	-58.438000	995.215027	1.128750	-0.118125	-3.220000
23.241001	32.452000	1003.023010	1.881250	-0.315000	-5.175625
-2.989000	2.196000	1001.864014	1.588125	-0.271250	-2.143750
16.896999	4.270000	1004.364990	1.365000	-0.113750	-1.732500
13.176001	-7.747000	1004.548035	0.735000	0.070000	-0.831250
15.433001	-8.906000	1008.390991	0.481250	0.043750	-0.459375
14.884000	-3.233000	1005.890015	0.966875	-0.218750	-0.669375
10.126000	-5.002000	1001.376038	0.997500	-0.140000	-0.761250
2.501000	-7.076000	999.057983	0.831250	-0.135625	-0.966875
2.684000	-2.867000	1000.278015	0.721875	-0.004375	-0.866250
18.056000	-11.163000	1008.025024	0.721875	-0.004375	-0.997500
18.056000	-12.078000	1002.718018	1.028125	-0.004375	-0.997500
28.792000	-12.078000	1002.718018	0.936250	-0.100625	-0.958125
13.786000	-5.795000	1006.927002	0.853125	-0.035000	-0.686875
8.784000	-6.954000	1000.827026	0.927500	-0.240625	1.203125
-1.647000	-8.662000	1004.242981	0.743750	-0.026250	-0.100625
14.030000	-8.540000	1003.083984	0.923125	0.140000	-0.883750
74.664001	-22.691999	1004.669983	0.748125	0.091875	-0.516250
-5.856000	20.618000	991.921021	0.665000	-0.258125	3.661875
13.603000	-3.477000	1000.460999	0.485625	-0.100625	0.262500
-34.647999	15.311000	1003.755005	0.791875	0.175000	-1.028125
39.771999	-20.374001	1007.049011	1.067500	-0.770000	1.758750
57.706001	-34.160000	1007.476013	1.006250	-0.192500	1.172500
22.204000	-10.919000	1000.583008	0.835625	0.135625	2.196250
20.740000	-5.185000	1004.121033	1.019375	-0.118125	1.859375
37.820000	0.427000	1017.358032	0.791875	0.516250	-2.406250
-6.466000	-3.660000	1002.108032	0.682500	0.179375	-1.684375
-6.710000	-9.089000	1000.033997	0.660625	0.030625	-0.927500
14.579000	-3.965000	1003.510986	0.962500	-0.017500	-0.787500
32.085999	-7.076000	1006.317017	1.036875	-0.043750	-0.765625
21.899000	-9.028000	1001.864014	1.093750	0.021875	-0.993125
-2.379000	-9.272000	1002.230042	1.085000	-0.035000	-1.093750
0.305000	-4.209000	999.302002	0.713125	0.021875	-0.826875
19.093000	-4.026000	1005.707031	0.713125	0.078750	-0.743750
27.877001	-4.880000	1003.937988	0.809375	-0.026250	-1.019375
13.664001	-13.969000	1004.304016	0.866250	-0.096250	-1.128750
2.989000	-6.527000	1000.400024	0.822500	-0.017500	-0.945000
1.342000	-2.379000	999.057983	0.910000	0.017500	-0.835625
15.372000	-4.636000	1006.561035	1.163750	0.039375	-0.726250
21.045000	-7.076000	1005.280029	0.748125	0.056875	-0.748125
16.469999	-14.579000	1008.147034	0.857500	0.161875	-0.861875
8.967000	-5.307000	1009.916016	1.155000	0.078750	-1.015000
9.882000	-3.172000	1004.548035	0.783125	0.021875	-0.962500
11.468000	-8.845000	1002.840027	0.778750	-0.070000	-0.866250
16.287001	-11.224000	1001.376038	0.896875	-0.056875	-0.923125
10.858000	-5.673000	1005.096985	1.155000	0.061250	-0.962500
9.272000	0.915000	1009.122986	0.940625	-0.078750	-0.892500
5.368000	-2.440000	1004.121033	0.914375	-0.008750	-0.940625
8.479000	-9.211000	1002.108032	1.015000	-0.135625	-0.831250
10.919000	-7.686000	1004.242981	0.805000	-0.061250	-1.045625
13.176001	-2.501000	998.997009	1.085000	0.065625	-0.931875
10.248000	-4.270000	1001.681030	0.962500	-0.140000	-1.050000
11.468000	-13.481000	1003.937988	0.853125	-0.179375	-1.019375
5.063000	-0.610000	1001.376038	0.761250	-0.017500	-0.879375
17.568001	-8.479000	1000.033997	0.752500	0.000000	-0.870625
27.389000	-6.710000	1004.121033	0.721875	0.231875	-1.776250
5.429000	-12.505000	996.191040	0.831250	0.118125	-0.975625
5.368000	-7.869000	1007.598022	0.752500	-0.056875	-0.936250
6.832000	-13.420000	983.502991	0.700000	-0.166250	-1.111250
11.285000	-0.122000	1001.559021	0.866250	0.035000	-0.892500
14.701000	-6.893000	993.872986	0.888125	0.008750	-0.857500
9.760000	-6.344000	1002.656982	0.783125	0.052500	-0.918750
12.627000	-6.588000	1002.596008	1.041250	0.013125	-0.918750
8.418000	-10.004000	1003.937988	0.940625	0.030625	-1.050000
10.614000	-8.418000	995.580994	1.098125	-0.105000	-0.962500
13.359000	-13.298000	1003.510986	0.783125	-0.013125	-0.962500
14.884000	-7.259000	1002.962036	0.896875	-0.056875	-0.993125
4.575000	-0.427000	1001.010010	0.555625	-0.144375	-0.984375
10.797000	-16.714001	1038.890991	0.735000	-0.043750	-0.910000
9.516000	-14.335000	998.875000	0.682500	-0.052500	-0.914375
12.993000	-7.015000	997.471985	0.936250	-0.131250	-0.809375
15.128000	-2.623000	1006.317017	0.796250	-0.052500	-0.993125
13.542000	-1.708000	999.851013	0.883750	-0.048125	-1.015000
5.307000	-5.368000	995.885986	0.840000	0.013125	-0.971250
11.529000	-5.734000	1005.218994	0.818125	0.052500	-0.914375
13.176001	-3.050000	1001.132019	0.853125	0.026250	-0.840000
16.287001	-12.749001	1001.986023	0.940625	-0.113750	-0.818125
15.860001	-11.468000	998.082031	1.071875	-0.157500	-0.826875
10.980000	-3.599000	1007.293030	0.901250	-0.070000	-0.980000
5.795000	-5.978000	1005.890015	0.686875	-0.039375	-0.901250
6.344000	-9.272000	1003.816040	0.905625	0.122500	-0.647500
17.568001	-11.834001	1003.450012	0.927500	0.004375	-0.866250
14.030000	-6.771000	1007.049011	0.888125	-0.354375	-1.133125
8.906000	-2.623000	1001.376038	0.708750	-0.113750	-0.975625
9.882000	-10.065001	1008.513000	0.787500	-0.175000	-0.945000
5.368000	-10.858000	1002.778992	1.001875	0.017500	-0.809375
18.544001	-2.989000	1002.230042	0.686875	0.004375	-0.831250
22.387001	-3.172000	1004.975037	0.669375	-0.070000	-1.045625
5.002000	-8.296000	999.241028	0.638750	-0.030625	-1.089375
5.612000	-11.102000	1004.364990	0.651875	-0.030625	-1.080625
11.041000	-4.819000	1004.914001	0.853125	0.131250	-0.923125
11.834001	-6.710000	999.668030	0.822500	0.078750	-0.953750
10.004000	-7.564000	1001.619995	1.010625	-0.056875	-0.896875
8.784000	-9.394000	1006.927002	0.599375	0.035000	-0.923125
5.734000	-4.819000	1006.255981	0.686875	0.126875	-0.901250
10.065001	-1.403000	1005.768005	0.945000	0.026250	-0.813750
13.969000	-13.359000	1005.158020	0.879375	0.052500	-0.988750
12.322001	-10.187000	998.387024	0.879375	0.052500	-0.988750
12.322001	-10.187000	1003.267029	0.875000	-0.021875	-0.953750
4.941000	-8.906000	1003.267029	0.761250	-0.083125	-0.883750
12.993000	-6.405000	1001.376038	0.756875	0.035000	-0.905625
15.921000	-2.013000	1005.463013	0.857500	0.109375	-0.748125
6.893000	-10.065001	1000.217041	0.800625	0.078750	-0.805000
16.042999	-9.028000	1006.072998	1.120000	-0.100625	-0.875000
8.113000	-3.233000	1000.765991	1.019375	-0.048125	-1.015000
5.612000	-0.549000	1004.487000	0.726250	0.021875	-0.980000
10.675000	-9.455000	1003.328003	0.756875	-0.061250	-0.840000
19.459000	-9.150001	999.911987	0.853125	-0.017500	-0.936250
12.261000	-5.673000	1002.230042	0.980000	-0.030625	-1.028125
11.224000	-3.660000	1005.463013	0.826875	-0.056875	-0.875000
8.784000	-1.952000	997.411011	0.879375	0.013125	-0.800625
6.344000	-6.466000	1004.121033	1.115625	-0.017500	-0.905625
9.577000	-5.612000	1002.718018	1.050000	0.039375	-0.805000
14.213000	-2.013000	1001.132019	0.721875	0.017500	-0.953750
12.078000	-6.588000	999.179993	0.700000	-0.056875	-1.120000
9.516000	-6.344000	1005.218994	0.678125	-0.091875	-0.918750
7.198000	-4.636000	999.973022	0.910000	-0.183750	-0.883750
11.773000	-5.490000	1003.145020	1.023750	-0.070000	-0.940625
12.444000	-9.760000	1002.351990	0.809375	0.021875	-0.931875
13.054000	-10.370000	1001.742004	0.787500	-0.035000	-0.975625
8.540000	-3.721000	1004.242981	0.730625	-0.061250	-1.006250
8.906000	-4.026000	1006.255981	0.896875	0.013125	-0.940625
13.237000	-6.954000	1004.182007	0.761250	0.048125	-0.901250
10.858000	-11.712000	1002.718018	0.813750	0.030625	-0.988750
6.710000	-8.723001	995.458984	0.752500	0.078750	-0.927500
9.089000	-4.209000	1001.559021	0.875000	-0.021875	-1.041250
10.858000	-2.684000	995.458984	1.063125	0.004375	-0.901250
7.686000	-6.588000	1008.330017	0.721875	-0.096250	-0.883750
11.041000	-8.052000	999.484985	0.787500	-0.017500	-0.805000
11.346000	-7.686000	1008.025024	0.870625	0.030625	-0.927500
11.834001	-2.379000	1000.583008	0.713125	-0.065625	-0.892500
8.174000	-6.832000	1003.389038	0.669375	0.061250	-0.945000
12.261000	-2.623000	1004.791992	0.809375	0.030625	-0.870625
78.140999	-193.248001	1073.416992	-2.616250	-4.361875	-2.804375
205.630997	-147.619995	925.674988	1.351875	-1.688750	-14.144375
202.031998	-62.159000	130.662003	3.303125	3.714375	-55.693748
-143.106003	128.404999	1043.832031	1.894375	0.056875	-65.174377
-180.621002	92.110001	553.330994	2.183125	-0.774375	-47.499374
-108.092003	-17.446001	1082.384033	1.058750	-0.437500	-21.192499
12.078000	-8.235000	978.379028	0.835625	-0.153125	-4.239375
5.917000	-7.564000	1015.345032	0.730625	-0.166250	-1.023750
11.651000	-6.100000	1000.033997	0.800625	-0.113750	-0.988750
11.834001	-3.599000	1003.023010	0.743750	-0.078750	-0.883750
7.564000	-2.684000	1006.072998	0.840000	-0.210000	-0.888125
12.993000	-10.675000	1000.338989	0.826875	-0.096250	-0.940625
9.760000	-9.150001	1009.122986	0.988750	-0.078750	-0.966875
5.612000	-7.076000	1007.354004	0.870625	-0.179375	-0.927500
12.017000	-5.734000	1005.280029	0.844375	-0.179375	-0.945000
14.274000	-6.954000	1005.158020	0.704375	0.074375	-0.883750
15.372000	-9.272000	999.424011	0.791875	0.083125	-0.927500
7.625000	-10.736000	1004.121033	0.686875	0.052500	-0.940625
14.457000	-8.601000	998.020996	0.931875	-0.113750	-1.054375
12.932000	-4.941000	1002.291016	0.866250	-0.109375	-1.032500
7.015000	-4.026000	1007.536987	0.975625	-0.061250	-0.988750
6.100000	-9.028000	1003.937988	0.813750	-0.013125	-0.918750
8.052000	-7.564000	1001.742004	0.901250	-0.105000	-0.910000
13.969000	-0.549000	1001.864014	0.953750	-0.030625	-0.940625
10.614000	-3.294000	1003.572021	0.892500	-0.135625	-0.927500
11.224000	-6.344000	1004.669983	0.796250	-0.126875	-0.958125
13.969000	-5.734000	997.777039	0.783125	-0.100625	-0.927500
9.028000	-3.904000	1000.705017	0.809375	-0.013125	-0.927500
3.904000	-4.636000	999.546021	0.778750	-0.078750	-0.848750
10.309000	-3.782000	1004.731018	0.848750	-0.021875	-0.910000
15.677000	-4.026000	1001.742004	0.975625	-0.030625	-0.940625
16.592001	-4.392000	997.471985	0.953750	0.030625	-0.936250
9.455000	-4.392000	1005.707031	1.032500	-0.048125	-0.822500
6.222000	-2.074000	1004.791992	0.848750	-0.065625	-0.896875
10.553000	-0.366000	1000.033997	0.975625	-0.096250	-0.936250
13.847000	-5.490000	1004.364990	1.010625	-0.153125	-0.905625
14.152000	-1.159000	997.411011	0.901250	-0.214375	-0.988750
8.479000	-5.856000	1002.291016	0.853125	-0.205625	-1.001875
10.675000	-8.296000	1004.426025	0.586250	0.004375	-0.966875
8.296000	-3.843000	993.018982	0.752500	0.105000	-0.958125
17.141001	-10.309000	1011.562988	0.818125	-0.013125	-0.923125
19.459000	-2.867000	1002.901001	0.739375	-0.035000	-0.896875
8.601000	-4.636000	999.911987	0.665000	0.078750	-0.857500
7.076000	-7.320000	998.325989	1.093750	-0.017500	-0.905625
16.165001	-5.124000	994.178040	1.128750	-0.065625	-0.844375
15.616000	-5.002000	1002.413025	0.905625	0.008750	-0.770000
14.518001	-8.296000	1004.914001	0.826875	-0.030625	-0.940625
8.723001	-2.135000	999.241028	1.089375	-0.192500	-1.032500
8.784000	-4.026000	1002.778992	0.826875	0.140000	-0.879375
12.017000	0.427000	999.668030	0.717500	-0.052500	-0.818125
15.677000	-4.758000	999.424011	0.805000	-0.052500	-0.831250
13.908000	-4.026000	1001.864014	0.805000	-0.052500	-0.861875
13.908000	-4.026000	999.790039	0.831250	-0.105000	-0.861875
8.662000	-12.139000	999.790039	0.713125	-0.052500	-1.102500
6.100000	-5.795000	1005.950989	0.879375	-0.083125	-1.010625
16.042999	-2.928000	1001.254028	0.940625	0.043750	-0.905625
13.176001	-5.734000	1010.221008	0.665000	0.000000	-0.945000
16.896999	-8.906000	1000.338989	0.765625	-0.048125	-0.927500
11.041000	-3.721000	1002.108032	0.765625	0.004375	-0.826875
16.409000	-5.856000	1004.242981	0.791875	-0.113750	-1.023750
8.723001	-4.636000	1001.986023	0.752500	0.017500	-0.958125
8.662000	-3.294000	997.350037	0.962500	-0.175000	-0.861875
10.675000	-5.734000	1000.217041	0.743750	-0.078750	-0.936250
11.468000	0.793000	999.668030	0.861875	0.004375	-0.945000
15.677000	-6.771000	1003.267029	0.848750	-0.052500	-0.940625
15.494000	-8.784000	1004.426025	0.984375	0.030625	-0.984375
12.810000	-4.331000	1004.304016	0.805000	-0.039375	-0.940625
7.930000	-8.662000	1001.010010	0.896875	0.021875	-1.010625
10.004000	-10.004000	1000.400024	1.111250	-0.161875	-0.875000
11.468000	-6.161000	1004.121033	0.726250	-0.148750	-0.958125
15.677000	-7.564000	1001.132019	0.743750	-0.087500	-1.023750
12.810000	-6.100000	998.325989	0.879375	-0.135625	-1.050000
7.259000	-5.612000	1000.460999	0.660625	-0.004375	-0.966875
8.296000	-3.416000	1000.522034	0.984375	-0.166250	-0.918750
13.481000	-10.187000	1003.267029	0.875000	-0.087500	-0.770000
13.908000	-5.429000	1005.645996	0.971250	-0.052500	-0.857500
18.239000	-5.246000	1002.596008	0.695625	0.061250	-0.844375
7.137000	-4.636000	1005.463013	0.783125	0.056875	-0.975625
6.466000	-7.686000	1002.840027	1.106875	-0.074375	-0.988750
4.758000	-11.712000	1000.888000	0.857500	-0.096250	-0.966875
14.762000	-5.307000	1002.718018	0.840000	0.021875	-0.936250
11.834001	-11.651000	997.411011	1.111250	0.021875	-0.870625
14.701000	-4.453000	1004.853027	0.997500	-0.056875	-0.879375
6.649000	-5.612000	997.166992	0.923125	-0.144375	-0.958125
6.466000	-2.013000	1003.755005	0.896875	-0.105000	-0.896875
10.553000	-3.294000	1000.643982	0.625625	-0.017500	-0.892500
13.847000	-5.002000	996.374023	0.616875	0.030625	-0.905625
16.104000	-6.710000	996.252014	0.686875	0.013125	-0.866250
7.259000	-3.721000	1000.583008	0.857500	-0.030625	-0.940625
7.076000	-4.148000	998.082031	0.857500	0.096250	-1.010625
15.067000	-7.320000	1006.072998	1.001875	-0.021875	-1.058750
11.712000	-2.867000	999.973022	0.940625	-0.004375	-0.962500
13.176001	-7.076000	1002.656982	0.910000	0.035000	-0.980000
11.712000	-7.564000	1001.254028	0.997500	-0.078750	-1.006250
9.272000	-4.331000	998.814026	0.993125	-0.100625	-0.910000
8.540000	-4.026000	997.350037	0.691250	-0.035000	-0.914375
14.335000	-2.806000	998.204041	0.577500	-0.017500	-0.866250
18.726999	-10.309000	1003.877014	1.076250	0.030625	-0.958125
10.797000	-6.893000	1004.914001	0.892500	0.013125	-0.953750
7.686000	-5.368000	1008.390991	0.931875	-0.323750	-0.945000
1.037000	-10.797000	1003.816040	0.590625	0.140000	-0.813750
11.285000	-10.126000	1002.840027	0.805000	0.126875	-0.818125
20.801001	-1.769000	997.593994	1.015000	-0.056875	-1.019375
18.666000	-7.991000	1005.341003	0.783125	-0.109375	-1.015000
6.405000	-2.379000	1003.083984	0.826875	-0.026250	-0.940625
3.538000	-1.098000	1003.572021	0.879375	-0.214375	-0.813750
14.030000	-7.137000	1001.010010	0.691250	-0.004375	-0.756875
23.118999	-11.468000	1002.108032	0.573125	0.039375	-0.875000
12.749001	-4.209000	998.204041	0.800625	0.000000	-1.098125
5.917000	-2.440000	1002.046997	0.695625	-0.056875	-1.041250
-0.305000	-6.466000	1004.242981	0.791875	0.109375	-0.870625
13.298000	-2.989000	1005.523987	1.098125	-0.083125	-0.848750
17.750999	-4.392000	1002.596008	0.564375	-0.039375	-0.984375
12.383000	-7.686000	1005.158020	0.476875	0.035000	-0.958125
7.198000	-10.858000	999.911987	0.590625	-0.109375	-0.971250
5.978000	-7.137000	997.960022	0.905625	-0.144375	-0.966875
14.823000	-5.368000	997.716003	0.958125	-0.240625	-0.853125
13.176001	-2.867000	1007.415039	0.708750	-0.043750	-0.905625
13.908000	-7.320000	999.606995	0.603750	-0.056875	-0.848750
4.941000	-9.638000	999.790039	0.735000	-0.113750	-0.927500
5.856000	-0.427000	997.471985	1.141875	-0.144375	-0.984375
11.895000	-1.220000	998.447998	1.067500	-0.113750	-0.853125
12.566000	-5.368000	1009.671997	1.023750	-0.030625	-0.840000
13.176001	-8.540000	1002.535034	0.914375	-0.170625	-0.966875
10.980000	-2.379000	1000.643982	0.883750	-0.039375	-0.923125
11.590000	-2.440000	1003.755005	0.958125	-0.061250	-0.927500
10.248000	-12.627000	1001.376038	0.918750	-0.161875	-0.861875
13.115000	-0.366000	984.906006	1.028125	0.008750	-0.905625
15.372000	-1.952000	998.692017	0.805000	-0.013125	-0.888125
8.967000	-3.050000	1003.999023	1.050000	-0.157500	-0.984375
8.174000	-9.211000	1002.840027	0.800625	-0.013125	-0.962500
12.749001	-12.200000	1002.473999	0.835625	0.021875	-0.936250
